#  E (eV)   dos(E)     Int dos(E) EFermi =    6.467 eV
 -40.000  0.1562E-83  0.1562E-85
 -39.990  0.1562E-83  0.3123E-85
 -39.980  0.1562E-83  0.4685E-85
 -39.970  0.1562E-83  0.6246E-85
 -39.960  0.1562E-83  0.7808E-85
 -39.950  0.1562E-83  0.9369E-85
 -39.940  0.1562E-83  0.1093E-84
 -39.930  0.1562E-83  0.1249E-84
 -39.920  0.1562E-83  0.1405E-84
 -39.910  0.1562E-83  0.1562E-84
 -39.900  0.1562E-83  0.1718E-84
 -39.890  0.1562E-83  0.1874E-84
 -39.880  0.1562E-83  0.2030E-84
 -39.870  0.1562E-83  0.2186E-84
 -39.860  0.1562E-83  0.2342E-84
 -39.850  0.1562E-83  0.2498E-84
 -39.840  0.1562E-83  0.2655E-84
 -39.830  0.1562E-83  0.2811E-84
 -39.820  0.1562E-83  0.2967E-84
 -39.810  0.1562E-83  0.3123E-84
 -39.800  0.1562E-83  0.3279E-84
 -39.790  0.1562E-83  0.3435E-84
 -39.780  0.1562E-83  0.3592E-84
 -39.770  0.1562E-83  0.3748E-84
 -39.760  0.1562E-83  0.3904E-84
 -39.750  0.1562E-83  0.4060E-84
 -39.740  0.1562E-83  0.4216E-84
 -39.730  0.1562E-83  0.4372E-84
 -39.720  0.1562E-83  0.4529E-84
 -39.710  0.1562E-83  0.4685E-84
 -39.700  0.1562E-83  0.4841E-84
 -39.690  0.1562E-83  0.4997E-84
 -39.680  0.1562E-83  0.5153E-84
 -39.670  0.1562E-83  0.5309E-84
 -39.660  0.1562E-83  0.5465E-84
 -39.650  0.1562E-83  0.5622E-84
 -39.640  0.1562E-83  0.5778E-84
 -39.630  0.1562E-83  0.5934E-84
 -39.620  0.1562E-83  0.6090E-84
 -39.610  0.1562E-83  0.6246E-84
 -39.600  0.1562E-83  0.6402E-84
 -39.590  0.1562E-83  0.6559E-84
 -39.580  0.1562E-83  0.6715E-84
 -39.570  0.1562E-83  0.6871E-84
 -39.560  0.1562E-83  0.7027E-84
 -39.550  0.1562E-83  0.7183E-84
 -39.540  0.1562E-83  0.7339E-84
 -39.530  0.1562E-83  0.7495E-84
 -39.520  0.1562E-83  0.7652E-84
 -39.510  0.1562E-83  0.7808E-84
 -39.500  0.1562E-83  0.7964E-84
 -39.490  0.1562E-83  0.8120E-84
 -39.480  0.1562E-83  0.8276E-84
 -39.470  0.1562E-83  0.8432E-84
 -39.460  0.1562E-83  0.8589E-84
 -39.450  0.1562E-83  0.8745E-84
 -39.440  0.1562E-83  0.8901E-84
 -39.430  0.1562E-83  0.9057E-84
 -39.420  0.1562E-83  0.9213E-84
 -39.410  0.1562E-83  0.9369E-84
 -39.400  0.1562E-83  0.9526E-84
 -39.390  0.1562E-83  0.9682E-84
 -39.380  0.1562E-83  0.9838E-84
 -39.370  0.1562E-83  0.9994E-84
 -39.360  0.1562E-83  0.1015E-83
 -39.350  0.1562E-83  0.1031E-83
 -39.340  0.1562E-83  0.1046E-83
 -39.330  0.1562E-83  0.1062E-83
 -39.320  0.1562E-83  0.1077E-83
 -39.310  0.1562E-83  0.1093E-83
 -39.300  0.1562E-83  0.1109E-83
 -39.290  0.1562E-83  0.1124E-83
 -39.280  0.1562E-83  0.1140E-83
 -39.270  0.1562E-83  0.1156E-83
 -39.260  0.1562E-83  0.1171E-83
 -39.250  0.1562E-83  0.1187E-83
 -39.240  0.1562E-83  0.1202E-83
 -39.230  0.1562E-83  0.1218E-83
 -39.220  0.1562E-83  0.1234E-83
 -39.210  0.1562E-83  0.1249E-83
 -39.200  0.1562E-83  0.1265E-83
 -39.190  0.1562E-83  0.1280E-83
 -39.180  0.1562E-83  0.1296E-83
 -39.170  0.1562E-83  0.1312E-83
 -39.160  0.1562E-83  0.1327E-83
 -39.150  0.1562E-83  0.1343E-83
 -39.140  0.1562E-83  0.1359E-83
 -39.130  0.1562E-83  0.1374E-83
 -39.120  0.1562E-83  0.1390E-83
 -39.110  0.1562E-83  0.1405E-83
 -39.100  0.1562E-83  0.1421E-83
 -39.090  0.1562E-83  0.1437E-83
 -39.080  0.1562E-83  0.1452E-83
 -39.070  0.1562E-83  0.1468E-83
 -39.060  0.1562E-83  0.1483E-83
 -39.050  0.1562E-83  0.1499E-83
 -39.040  0.1562E-83  0.1515E-83
 -39.030  0.1562E-83  0.1530E-83
 -39.020  0.1562E-83  0.1546E-83
 -39.010  0.1562E-83  0.1562E-83
 -39.000  0.1562E-83  0.1577E-83
 -38.990  0.1562E-83  0.1593E-83
 -38.980  0.1562E-83  0.1608E-83
 -38.970  0.1562E-83  0.1624E-83
 -38.960  0.1562E-83  0.1640E-83
 -38.950  0.1562E-83  0.1655E-83
 -38.940  0.1562E-83  0.1671E-83
 -38.930  0.1562E-83  0.1686E-83
 -38.920  0.1562E-83  0.1702E-83
 -38.910  0.1562E-83  0.1718E-83
 -38.900  0.1562E-83  0.1733E-83
 -38.890  0.1562E-83  0.1749E-83
 -38.880  0.1562E-83  0.1765E-83
 -38.870  0.1562E-83  0.1780E-83
 -38.860  0.1562E-83  0.1796E-83
 -38.850  0.1562E-83  0.1811E-83
 -38.840  0.1562E-83  0.1827E-83
 -38.830  0.1562E-83  0.1843E-83
 -38.820  0.1562E-83  0.1858E-83
 -38.810  0.1562E-83  0.1874E-83
 -38.800  0.1562E-83  0.1889E-83
 -38.790  0.1562E-83  0.1905E-83
 -38.780  0.1562E-83  0.1921E-83
 -38.770  0.1562E-83  0.1936E-83
 -38.760  0.1562E-83  0.1952E-83
 -38.750  0.1562E-83  0.1968E-83
 -38.740  0.1562E-83  0.1983E-83
 -38.730  0.1562E-83  0.1999E-83
 -38.720  0.1562E-83  0.2014E-83
 -38.710  0.1562E-83  0.2030E-83
 -38.700  0.1562E-83  0.2046E-83
 -38.690  0.1562E-83  0.2061E-83
 -38.680  0.1562E-83  0.2077E-83
 -38.670  0.1562E-83  0.2092E-83
 -38.660  0.1562E-83  0.2108E-83
 -38.650  0.1562E-83  0.2124E-83
 -38.640  0.1562E-83  0.2139E-83
 -38.630  0.1562E-83  0.2155E-83
 -38.620  0.1562E-83  0.2171E-83
 -38.610  0.1562E-83  0.2186E-83
 -38.600  0.1562E-83  0.2202E-83
 -38.590  0.1562E-83  0.2217E-83
 -38.580  0.1562E-83  0.2233E-83
 -38.570  0.1562E-83  0.2249E-83
 -38.560  0.1562E-83  0.2264E-83
 -38.550  0.1562E-83  0.2280E-83
 -38.540  0.1562E-83  0.2295E-83
 -38.530  0.1562E-83  0.2311E-83
 -38.520  0.1562E-83  0.2327E-83
 -38.510  0.1562E-83  0.2342E-83
 -38.500  0.1562E-83  0.2358E-83
 -38.490  0.1562E-83  0.2374E-83
 -38.480  0.1562E-83  0.2389E-83
 -38.470  0.1562E-83  0.2405E-83
 -38.460  0.1562E-83  0.2420E-83
 -38.450  0.1562E-83  0.2436E-83
 -38.440  0.1562E-83  0.2452E-83
 -38.430  0.1562E-83  0.2467E-83
 -38.420  0.1562E-83  0.2483E-83
 -38.410  0.1562E-83  0.2498E-83
 -38.400  0.1562E-83  0.2514E-83
 -38.390  0.1562E-83  0.2530E-83
 -38.380  0.1562E-83  0.2545E-83
 -38.370  0.1562E-83  0.2561E-83
 -38.360  0.1562E-83  0.2577E-83
 -38.350  0.1562E-83  0.2592E-83
 -38.340  0.1562E-83  0.2608E-83
 -38.330  0.1562E-83  0.2623E-83
 -38.320  0.1562E-83  0.2639E-83
 -38.310  0.1562E-83  0.2655E-83
 -38.300  0.1562E-83  0.2670E-83
 -38.290  0.1562E-83  0.2686E-83
 -38.280  0.1562E-83  0.2701E-83
 -38.270  0.1562E-83  0.2717E-83
 -38.260  0.1562E-83  0.2733E-83
 -38.250  0.1562E-83  0.2748E-83
 -38.240  0.1562E-83  0.2764E-83
 -38.230  0.1562E-83  0.2780E-83
 -38.220  0.1562E-83  0.2795E-83
 -38.210  0.1562E-83  0.2811E-83
 -38.200  0.1562E-83  0.2826E-83
 -38.190  0.1562E-83  0.2842E-83
 -38.180  0.1562E-83  0.2858E-83
 -38.170  0.1562E-83  0.2873E-83
 -38.160  0.1562E-83  0.2889E-83
 -38.150  0.1562E-83  0.2905E-83
 -38.140  0.1562E-83  0.2920E-83
 -38.130  0.1562E-83  0.2936E-83
 -38.120  0.1562E-83  0.2951E-83
 -38.110  0.1562E-83  0.2967E-83
 -38.100  0.1562E-83  0.2983E-83
 -38.090  0.1562E-83  0.2998E-83
 -38.080  0.1562E-83  0.3014E-83
 -38.070  0.1562E-83  0.3029E-83
 -38.060  0.1562E-83  0.3045E-83
 -38.050  0.1562E-83  0.3061E-83
 -38.040  0.1562E-83  0.3076E-83
 -38.030  0.1562E-83  0.3092E-83
 -38.020  0.1562E-83  0.3108E-83
 -38.010  0.1562E-83  0.3123E-83
 -38.000  0.1562E-83  0.3139E-83
 -37.990  0.1562E-83  0.3154E-83
 -37.980  0.1562E-83  0.3170E-83
 -37.970  0.1562E-83  0.3186E-83
 -37.960  0.1562E-83  0.3201E-83
 -37.950  0.1562E-83  0.3217E-83
 -37.940  0.1562E-83  0.3232E-83
 -37.930  0.1562E-83  0.3248E-83
 -37.920  0.1562E-83  0.3264E-83
 -37.910  0.1562E-83  0.3279E-83
 -37.900  0.1562E-83  0.3295E-83
 -37.890  0.1562E-83  0.3311E-83
 -37.880  0.1562E-83  0.3326E-83
 -37.870  0.1562E-83  0.3342E-83
 -37.860  0.1562E-83  0.3357E-83
 -37.850  0.1562E-83  0.3373E-83
 -37.840  0.1562E-83  0.3389E-83
 -37.830  0.1562E-83  0.3404E-83
 -37.820  0.1562E-83  0.3420E-83
 -37.810  0.1562E-83  0.3435E-83
 -37.800  0.1562E-83  0.3451E-83
 -37.790  0.1562E-83  0.3467E-83
 -37.780  0.1562E-83  0.3482E-83
 -37.770  0.1562E-83  0.3498E-83
 -37.760  0.1562E-83  0.3514E-83
 -37.750  0.1562E-83  0.3529E-83
 -37.740  0.1562E-83  0.3545E-83
 -37.730  0.1562E-83  0.3560E-83
 -37.720  0.1562E-83  0.3576E-83
 -37.710  0.1562E-83  0.3592E-83
 -37.700  0.1562E-83  0.3607E-83
 -37.690  0.1562E-83  0.3623E-83
 -37.680  0.1562E-83  0.3638E-83
 -37.670  0.1562E-83  0.3654E-83
 -37.660  0.1562E-83  0.3670E-83
 -37.650  0.1562E-83  0.3685E-83
 -37.640  0.1562E-83  0.3701E-83
 -37.630  0.1562E-83  0.3717E-83
 -37.620  0.1562E-83  0.3732E-83
 -37.610  0.1562E-83  0.3748E-83
 -37.600  0.1562E-83  0.3763E-83
 -37.590  0.1562E-83  0.3779E-83
 -37.580  0.1562E-83  0.3795E-83
 -37.570  0.1562E-83  0.3810E-83
 -37.560  0.1562E-83  0.3826E-83
 -37.550  0.1562E-83  0.3841E-83
 -37.540  0.1562E-83  0.3857E-83
 -37.530  0.1562E-83  0.3873E-83
 -37.520  0.1562E-83  0.3888E-83
 -37.510  0.1562E-83  0.3904E-83
 -37.500  0.1562E-83  0.3920E-83
 -37.490  0.1562E-83  0.3935E-83
 -37.480  0.1562E-83  0.3951E-83
 -37.470  0.1562E-83  0.3966E-83
 -37.460  0.1562E-83  0.3982E-83
 -37.450  0.1562E-83  0.3998E-83
 -37.440  0.1562E-83  0.4013E-83
 -37.430  0.1562E-83  0.4029E-83
 -37.420  0.1562E-83  0.4044E-83
 -37.410  0.1562E-83  0.4060E-83
 -37.400  0.1562E-83  0.4076E-83
 -37.390  0.1562E-83  0.4091E-83
 -37.380  0.1562E-83  0.4107E-83
 -37.370  0.1562E-83  0.4123E-83
 -37.360  0.1562E-83  0.4138E-83
 -37.350  0.1562E-83  0.4154E-83
 -37.340  0.1562E-83  0.4169E-83
 -37.330  0.1562E-83  0.4185E-83
 -37.320  0.1562E-83  0.4201E-83
 -37.310  0.1562E-83  0.4216E-83
 -37.300  0.1562E-83  0.4232E-83
 -37.290  0.1562E-83  0.4247E-83
 -37.280  0.1562E-83  0.4263E-83
 -37.270  0.1562E-83  0.4279E-83
 -37.260  0.1562E-83  0.4294E-83
 -37.250  0.1562E-83  0.4310E-83
 -37.240  0.1562E-83  0.4326E-83
 -37.230  0.1562E-83  0.4341E-83
 -37.220  0.1562E-83  0.4357E-83
 -37.210  0.1562E-83  0.4372E-83
 -37.200  0.1562E-83  0.4388E-83
 -37.190  0.1562E-83  0.4404E-83
 -37.180  0.1562E-83  0.4419E-83
 -37.170  0.1562E-83  0.4435E-83
 -37.160  0.1562E-83  0.4450E-83
 -37.150  0.1562E-83  0.4466E-83
 -37.140  0.1562E-83  0.4482E-83
 -37.130  0.1562E-83  0.4497E-83
 -37.120  0.1562E-83  0.4513E-83
 -37.110  0.1562E-83  0.4529E-83
 -37.100  0.1562E-83  0.4544E-83
 -37.090  0.1562E-83  0.4560E-83
 -37.080  0.1562E-83  0.4575E-83
 -37.070  0.1562E-83  0.4591E-83
 -37.060  0.1562E-83  0.4607E-83
 -37.050  0.1562E-83  0.4622E-83
 -37.040  0.1562E-83  0.4638E-83
 -37.030  0.1562E-83  0.4653E-83
 -37.020  0.1562E-83  0.4669E-83
 -37.010  0.1562E-83  0.4685E-83
 -37.000  0.1562E-83  0.4700E-83
 -36.990  0.1562E-83  0.4716E-83
 -36.980  0.1562E-83  0.4732E-83
 -36.970  0.1562E-83  0.4747E-83
 -36.960  0.1562E-83  0.4763E-83
 -36.950  0.1562E-83  0.4778E-83
 -36.940  0.1562E-83  0.4794E-83
 -36.930  0.1562E-83  0.4810E-83
 -36.920  0.1562E-83  0.4825E-83
 -36.910  0.1562E-83  0.4841E-83
 -36.900  0.1562E-83  0.4856E-83
 -36.890  0.1562E-83  0.4872E-83
 -36.880  0.1562E-83  0.4888E-83
 -36.870  0.1562E-83  0.4903E-83
 -36.860  0.1562E-83  0.4919E-83
 -36.850  0.1562E-83  0.4935E-83
 -36.840  0.1562E-83  0.4950E-83
 -36.830  0.1562E-83  0.4966E-83
 -36.820  0.1562E-83  0.4981E-83
 -36.810  0.1562E-83  0.4997E-83
 -36.800  0.1562E-83  0.5013E-83
 -36.790  0.1562E-83  0.5028E-83
 -36.780  0.1562E-83  0.5044E-83
 -36.770  0.1562E-83  0.5059E-83
 -36.760  0.1562E-83  0.5075E-83
 -36.750  0.1562E-83  0.5091E-83
 -36.740  0.1562E-83  0.5106E-83
 -36.730  0.1562E-83  0.5122E-83
 -36.720  0.1562E-83  0.5138E-83
 -36.710  0.1562E-83  0.5153E-83
 -36.700  0.1562E-83  0.5169E-83
 -36.690  0.1562E-83  0.5184E-83
 -36.680  0.1562E-83  0.5200E-83
 -36.670  0.1562E-83  0.5216E-83
 -36.660  0.1562E-83  0.5231E-83
 -36.650  0.1562E-83  0.5247E-83
 -36.640  0.1562E-83  0.5262E-83
 -36.630  0.1562E-83  0.5278E-83
 -36.620  0.1562E-83  0.5294E-83
 -36.610  0.1562E-83  0.5309E-83
 -36.600  0.1562E-83  0.5325E-83
 -36.590  0.1562E-83  0.5341E-83
 -36.580  0.1562E-83  0.5356E-83
 -36.570  0.1562E-83  0.5372E-83
 -36.560  0.1562E-83  0.5387E-83
 -36.550  0.1562E-83  0.5403E-83
 -36.540  0.1562E-83  0.5419E-83
 -36.530  0.1562E-83  0.5434E-83
 -36.520  0.1562E-83  0.5450E-83
 -36.510  0.1562E-83  0.5465E-83
 -36.500  0.1562E-83  0.5481E-83
 -36.490  0.1562E-83  0.5497E-83
 -36.480  0.1562E-83  0.5512E-83
 -36.470  0.1562E-83  0.5528E-83
 -36.460  0.1562E-83  0.5544E-83
 -36.450  0.1562E-83  0.5559E-83
 -36.440  0.1562E-83  0.5575E-83
 -36.430  0.1562E-83  0.5590E-83
 -36.420  0.1562E-83  0.5606E-83
 -36.410  0.1562E-83  0.5622E-83
 -36.400  0.1562E-83  0.5637E-83
 -36.390  0.1562E-83  0.5653E-83
 -36.380  0.1562E-83  0.5668E-83
 -36.370  0.1562E-83  0.5684E-83
 -36.360  0.1562E-83  0.5700E-83
 -36.350  0.1562E-83  0.5715E-83
 -36.340  0.1562E-83  0.5731E-83
 -36.330  0.1562E-83  0.5747E-83
 -36.320  0.1562E-83  0.5762E-83
 -36.310  0.1562E-83  0.5778E-83
 -36.300  0.1562E-83  0.5793E-83
 -36.290  0.1562E-83  0.5809E-83
 -36.280  0.1562E-83  0.5825E-83
 -36.270  0.1562E-83  0.5840E-83
 -36.260  0.1562E-83  0.5856E-83
 -36.250  0.1562E-83  0.5871E-83
 -36.240  0.1562E-83  0.5887E-83
 -36.230  0.1562E-83  0.5903E-83
 -36.220  0.1562E-83  0.5918E-83
 -36.210  0.1562E-83  0.5934E-83
 -36.200  0.1562E-83  0.5950E-83
 -36.190  0.1562E-83  0.5965E-83
 -36.180  0.1562E-83  0.5981E-83
 -36.170  0.1562E-83  0.5996E-83
 -36.160  0.1562E-83  0.6012E-83
 -36.150  0.1562E-83  0.6028E-83
 -36.140  0.1562E-83  0.6043E-83
 -36.130  0.1562E-83  0.6059E-83
 -36.120  0.1562E-83  0.6074E-83
 -36.110  0.1562E-83  0.6090E-83
 -36.100  0.1562E-83  0.6106E-83
 -36.090  0.1562E-83  0.6121E-83
 -36.080  0.1562E-83  0.6137E-83
 -36.070  0.1562E-83  0.6153E-83
 -36.060  0.1562E-83  0.6168E-83
 -36.050  0.1562E-83  0.6184E-83
 -36.040  0.1562E-83  0.6199E-83
 -36.030  0.1562E-83  0.6215E-83
 -36.020  0.1562E-83  0.6231E-83
 -36.010  0.1562E-83  0.6246E-83
 -36.000  0.1562E-83  0.6262E-83
 -35.990  0.1562E-83  0.6277E-83
 -35.980  0.1562E-83  0.6293E-83
 -35.970  0.1562E-83  0.6309E-83
 -35.960  0.1562E-83  0.6324E-83
 -35.950  0.1562E-83  0.6340E-83
 -35.940  0.1562E-83  0.6356E-83
 -35.930  0.1562E-83  0.6371E-83
 -35.920  0.1562E-83  0.6387E-83
 -35.910  0.1562E-83  0.6402E-83
 -35.900  0.1562E-83  0.6418E-83
 -35.890  0.1562E-83  0.6434E-83
 -35.880  0.1562E-83  0.6449E-83
 -35.870  0.1562E-83  0.6465E-83
 -35.860  0.1562E-83  0.6480E-83
 -35.850  0.1562E-83  0.6496E-83
 -35.840  0.1562E-83  0.6512E-83
 -35.830  0.1562E-83  0.6527E-83
 -35.820  0.1562E-83  0.6543E-83
 -35.810  0.1562E-83  0.6559E-83
 -35.800  0.1562E-83  0.6574E-83
 -35.790  0.1562E-83  0.6590E-83
 -35.780  0.1562E-83  0.6605E-83
 -35.770  0.1562E-83  0.6621E-83
 -35.760  0.1562E-83  0.6637E-83
 -35.750  0.1562E-83  0.6652E-83
 -35.740  0.1562E-83  0.6668E-83
 -35.730  0.1562E-83  0.6683E-83
 -35.720  0.1562E-83  0.6699E-83
 -35.710  0.1562E-83  0.6715E-83
 -35.700  0.1562E-83  0.6730E-83
 -35.690  0.1562E-83  0.6746E-83
 -35.680  0.1562E-83  0.6762E-83
 -35.670  0.1562E-83  0.6777E-83
 -35.660  0.1562E-83  0.6793E-83
 -35.650  0.1562E-83  0.6808E-83
 -35.640  0.1562E-83  0.6824E-83
 -35.630  0.1562E-83  0.6840E-83
 -35.620  0.1562E-83  0.6855E-83
 -35.610  0.1562E-83  0.6871E-83
 -35.600  0.1562E-83  0.6886E-83
 -35.590  0.1562E-83  0.6902E-83
 -35.580  0.1562E-83  0.6918E-83
 -35.570  0.1562E-83  0.6933E-83
 -35.560  0.1562E-83  0.6949E-83
 -35.550  0.1562E-83  0.6965E-83
 -35.540  0.1562E-83  0.6980E-83
 -35.530  0.1562E-83  0.6996E-83
 -35.520  0.1562E-83  0.7011E-83
 -35.510  0.1562E-83  0.7027E-83
 -35.500  0.1562E-83  0.7043E-83
 -35.490  0.1562E-83  0.7058E-83
 -35.480  0.1562E-83  0.7074E-83
 -35.470  0.1562E-83  0.7089E-83
 -35.460  0.1562E-83  0.7105E-83
 -35.450  0.1562E-83  0.7121E-83
 -35.440  0.1562E-83  0.7136E-83
 -35.430  0.1562E-83  0.7152E-83
 -35.420  0.1562E-83  0.7168E-83
 -35.410  0.1562E-83  0.7183E-83
 -35.400  0.1562E-83  0.7199E-83
 -35.390  0.1562E-83  0.7214E-83
 -35.380  0.1562E-83  0.7230E-83
 -35.370  0.1562E-83  0.7246E-83
 -35.360  0.1562E-83  0.7261E-83
 -35.350  0.1562E-83  0.7277E-83
 -35.340  0.1562E-83  0.7292E-83
 -35.330  0.1562E-83  0.7308E-83
 -35.320  0.1562E-83  0.7324E-83
 -35.310  0.1562E-83  0.7339E-83
 -35.300  0.1562E-83  0.7355E-83
 -35.290  0.1562E-83  0.7371E-83
 -35.280  0.1562E-83  0.7386E-83
 -35.270  0.1562E-83  0.7402E-83
 -35.260  0.1562E-83  0.7417E-83
 -35.250  0.1562E-83  0.7433E-83
 -35.240  0.1562E-83  0.7449E-83
 -35.230  0.1562E-83  0.7464E-83
 -35.220  0.1562E-83  0.7480E-83
 -35.210  0.1562E-83  0.7495E-83
 -35.200  0.1562E-83  0.7511E-83
 -35.190  0.1562E-83  0.7527E-83
 -35.180  0.1562E-83  0.7542E-83
 -35.170  0.1562E-83  0.7558E-83
 -35.160  0.1562E-83  0.7574E-83
 -35.150  0.1562E-83  0.7589E-83
 -35.140  0.1562E-83  0.7605E-83
 -35.130  0.1562E-83  0.7620E-83
 -35.120  0.1562E-83  0.7636E-83
 -35.110  0.1562E-83  0.7652E-83
 -35.100  0.1562E-83  0.7667E-83
 -35.090  0.1562E-83  0.7683E-83
 -35.080  0.1562E-83  0.7698E-83
 -35.070  0.1562E-83  0.7714E-83
 -35.060  0.1562E-83  0.7730E-83
 -35.050  0.1562E-83  0.7745E-83
 -35.040  0.1562E-83  0.7761E-83
 -35.030  0.1562E-83  0.7777E-83
 -35.020  0.1562E-83  0.7792E-83
 -35.010  0.1562E-83  0.7808E-83
 -35.000  0.1562E-83  0.7823E-83
 -34.990  0.1562E-83  0.7839E-83
 -34.980  0.1562E-83  0.7855E-83
 -34.970  0.1562E-83  0.7870E-83
 -34.960  0.1562E-83  0.7886E-83
 -34.950  0.1562E-83  0.7901E-83
 -34.940  0.1562E-83  0.7917E-83
 -34.930  0.1562E-83  0.7933E-83
 -34.920  0.1562E-83  0.7948E-83
 -34.910  0.1562E-83  0.7964E-83
 -34.900  0.1562E-83  0.7980E-83
 -34.890  0.1562E-83  0.7995E-83
 -34.880  0.1562E-83  0.8011E-83
 -34.870  0.1562E-83  0.8026E-83
 -34.860  0.1562E-83  0.8042E-83
 -34.850  0.1562E-83  0.8058E-83
 -34.840  0.1562E-83  0.8073E-83
 -34.830  0.1562E-83  0.8089E-83
 -34.820  0.1562E-83  0.8104E-83
 -34.810  0.1562E-83  0.8120E-83
 -34.800  0.1562E-83  0.8136E-83
 -34.790  0.1562E-83  0.8151E-83
 -34.780  0.1562E-83  0.8167E-83
 -34.770  0.1562E-83  0.8183E-83
 -34.760  0.1562E-83  0.8198E-83
 -34.750  0.1562E-83  0.8214E-83
 -34.740  0.1562E-83  0.8229E-83
 -34.730  0.1562E-83  0.8245E-83
 -34.720  0.1562E-83  0.8261E-83
 -34.710  0.1562E-83  0.8276E-83
 -34.700  0.1562E-83  0.8292E-83
 -34.690  0.1562E-83  0.8307E-83
 -34.680  0.1562E-83  0.8323E-83
 -34.670  0.1562E-83  0.8339E-83
 -34.660  0.1562E-83  0.8354E-83
 -34.650  0.1562E-83  0.8370E-83
 -34.640  0.1562E-83  0.8386E-83
 -34.630  0.1562E-83  0.8401E-83
 -34.620  0.1562E-83  0.8417E-83
 -34.610  0.1562E-83  0.8432E-83
 -34.600  0.1562E-83  0.8448E-83
 -34.590  0.1562E-83  0.8464E-83
 -34.580  0.1562E-83  0.8479E-83
 -34.570  0.1562E-83  0.8495E-83
 -34.560  0.1562E-83  0.8511E-83
 -34.550  0.1562E-83  0.8526E-83
 -34.540  0.1562E-83  0.8542E-83
 -34.530  0.1562E-83  0.8557E-83
 -34.520  0.1562E-83  0.8573E-83
 -34.510  0.1562E-83  0.8589E-83
 -34.500  0.1562E-83  0.8604E-83
 -34.490  0.1562E-83  0.8620E-83
 -34.480  0.1562E-83  0.8635E-83
 -34.470  0.1562E-83  0.8651E-83
 -34.460  0.1562E-83  0.8667E-83
 -34.450  0.1562E-83  0.8682E-83
 -34.440  0.1562E-83  0.8698E-83
 -34.430  0.1562E-83  0.8714E-83
 -34.420  0.1562E-83  0.8729E-83
 -34.410  0.1562E-83  0.8745E-83
 -34.400  0.1562E-83  0.8760E-83
 -34.390  0.1562E-83  0.8776E-83
 -34.380  0.1562E-83  0.8792E-83
 -34.370  0.1562E-83  0.8807E-83
 -34.360  0.1562E-83  0.8823E-83
 -34.350  0.1562E-83  0.8838E-83
 -34.340  0.1562E-83  0.8854E-83
 -34.330  0.1562E-83  0.8870E-83
 -34.320  0.1562E-83  0.8885E-83
 -34.310  0.1562E-83  0.8901E-83
 -34.300  0.1562E-83  0.8917E-83
 -34.290  0.1562E-83  0.8932E-83
 -34.280  0.1562E-83  0.8948E-83
 -34.270  0.1562E-83  0.8963E-83
 -34.260  0.1562E-83  0.8979E-83
 -34.250  0.1562E-83  0.8995E-83
 -34.240  0.1562E-83  0.9010E-83
 -34.230  0.1562E-83  0.9026E-83
 -34.220  0.1562E-83  0.9041E-83
 -34.210  0.1562E-83  0.9057E-83
 -34.200  0.1562E-83  0.9073E-83
 -34.190  0.1562E-83  0.9088E-83
 -34.180  0.1562E-83  0.9104E-83
 -34.170  0.1562E-83  0.9120E-83
 -34.160  0.1562E-83  0.9135E-83
 -34.150  0.1562E-83  0.9151E-83
 -34.140  0.1562E-83  0.9166E-83
 -34.130  0.1562E-83  0.9182E-83
 -34.120  0.1562E-83  0.9198E-83
 -34.110  0.1562E-83  0.9213E-83
 -34.100  0.1562E-83  0.9229E-83
 -34.090  0.1562E-83  0.9244E-83
 -34.080  0.1562E-83  0.9260E-83
 -34.070  0.1562E-83  0.9276E-83
 -34.060  0.1562E-83  0.9291E-83
 -34.050  0.1562E-83  0.9307E-83
 -34.040  0.1562E-83  0.9323E-83
 -34.030  0.1562E-83  0.9338E-83
 -34.020  0.1562E-83  0.9354E-83
 -34.010  0.1562E-83  0.9369E-83
 -34.000  0.1562E-83  0.9385E-83
 -33.990  0.1562E-83  0.9401E-83
 -33.980  0.1562E-83  0.9416E-83
 -33.970  0.1562E-83  0.9432E-83
 -33.960  0.1562E-83  0.9447E-83
 -33.950  0.1562E-83  0.9463E-83
 -33.940  0.1562E-83  0.9479E-83
 -33.930  0.1562E-83  0.9494E-83
 -33.920  0.1562E-83  0.9510E-83
 -33.910  0.1562E-83  0.9526E-83
 -33.900  0.1562E-83  0.9541E-83
 -33.890  0.1562E-83  0.9557E-83
 -33.880  0.1562E-83  0.9572E-83
 -33.870  0.1562E-83  0.9588E-83
 -33.860  0.1562E-83  0.9604E-83
 -33.850  0.1562E-83  0.9619E-83
 -33.840  0.1562E-83  0.9635E-83
 -33.830  0.1562E-83  0.9650E-83
 -33.820  0.1562E-83  0.9666E-83
 -33.810  0.1562E-83  0.9682E-83
 -33.800  0.1562E-83  0.9697E-83
 -33.790  0.1562E-83  0.9713E-83
 -33.780  0.1562E-83  0.9729E-83
 -33.770  0.1562E-83  0.9744E-83
 -33.760  0.1562E-83  0.9760E-83
 -33.750  0.1562E-83  0.9775E-83
 -33.740  0.1562E-83  0.9791E-83
 -33.730  0.1562E-83  0.9807E-83
 -33.720  0.1562E-83  0.9822E-83
 -33.710  0.1562E-83  0.9838E-83
 -33.700  0.1562E-83  0.9853E-83
 -33.690  0.1562E-83  0.9869E-83
 -33.680  0.1562E-83  0.9885E-83
 -33.670  0.1562E-83  0.9900E-83
 -33.660  0.1562E-83  0.9916E-83
 -33.650  0.1562E-83  0.9932E-83
 -33.640  0.1562E-83  0.9947E-83
 -33.630  0.1562E-83  0.9963E-83
 -33.620  0.1562E-83  0.9978E-83
 -33.610  0.1562E-83  0.9994E-83
 -33.600  0.1562E-83  0.1001E-82
 -33.590  0.1562E-83  0.1003E-82
 -33.580  0.1562E-83  0.1004E-82
 -33.570  0.1562E-83  0.1006E-82
 -33.560  0.1562E-83  0.1007E-82
 -33.550  0.1562E-83  0.1009E-82
 -33.540  0.1562E-83  0.1010E-82
 -33.530  0.1562E-83  0.1012E-82
 -33.520  0.1562E-83  0.1013E-82
 -33.510  0.1562E-83  0.1015E-82
 -33.500  0.1562E-83  0.1017E-82
 -33.490  0.1562E-83  0.1018E-82
 -33.480  0.1562E-83  0.1020E-82
 -33.470  0.1562E-83  0.1021E-82
 -33.460  0.1562E-83  0.1023E-82
 -33.450  0.1562E-83  0.1024E-82
 -33.440  0.1562E-83  0.1026E-82
 -33.430  0.1562E-83  0.1028E-82
 -33.420  0.1562E-83  0.1029E-82
 -33.410  0.1562E-83  0.1031E-82
 -33.400  0.1562E-83  0.1032E-82
 -33.390  0.1562E-83  0.1034E-82
 -33.380  0.1562E-83  0.1035E-82
 -33.370  0.1562E-83  0.1037E-82
 -33.360  0.1562E-83  0.1038E-82
 -33.350  0.1562E-83  0.1040E-82
 -33.340  0.1562E-83  0.1042E-82
 -33.330  0.1562E-83  0.1043E-82
 -33.320  0.1562E-83  0.1045E-82
 -33.310  0.1562E-83  0.1046E-82
 -33.300  0.1562E-83  0.1048E-82
 -33.290  0.1562E-83  0.1049E-82
 -33.280  0.1562E-83  0.1051E-82
 -33.270  0.1562E-83  0.1052E-82
 -33.260  0.1562E-83  0.1054E-82
 -33.250  0.1562E-83  0.1056E-82
 -33.240  0.1562E-83  0.1057E-82
 -33.230  0.1562E-83  0.1059E-82
 -33.220  0.1562E-83  0.1060E-82
 -33.210  0.1562E-83  0.1062E-82
 -33.200  0.1562E-83  0.1063E-82
 -33.190  0.1562E-83  0.1065E-82
 -33.180  0.1562E-83  0.1067E-82
 -33.170  0.1562E-83  0.1068E-82
 -33.160  0.1562E-83  0.1070E-82
 -33.150  0.1562E-83  0.1071E-82
 -33.140  0.1562E-83  0.1073E-82
 -33.130  0.1562E-83  0.1074E-82
 -33.120  0.1562E-83  0.1076E-82
 -33.110  0.1562E-83  0.1077E-82
 -33.100  0.1562E-83  0.1079E-82
 -33.090  0.1562E-83  0.1081E-82
 -33.080  0.1562E-83  0.1082E-82
 -33.070  0.1562E-83  0.1084E-82
 -33.060  0.1562E-83  0.1085E-82
 -33.050  0.1562E-83  0.1087E-82
 -33.040  0.1562E-83  0.1088E-82
 -33.030  0.1562E-83  0.1090E-82
 -33.020  0.1562E-83  0.1092E-82
 -33.010  0.1562E-83  0.1093E-82
 -33.000  0.1562E-83  0.1095E-82
 -32.990  0.1562E-83  0.1096E-82
 -32.980  0.1562E-83  0.1098E-82
 -32.970  0.1562E-83  0.1099E-82
 -32.960  0.1562E-83  0.1101E-82
 -32.950  0.1562E-83  0.1102E-82
 -32.940  0.1562E-83  0.1104E-82
 -32.930  0.1562E-83  0.1106E-82
 -32.920  0.1562E-83  0.1107E-82
 -32.910  0.1562E-83  0.1109E-82
 -32.900  0.1562E-83  0.1110E-82
 -32.890  0.1562E-83  0.1112E-82
 -32.880  0.1562E-83  0.1113E-82
 -32.870  0.1562E-83  0.1115E-82
 -32.860  0.1562E-83  0.1117E-82
 -32.850  0.1562E-83  0.1118E-82
 -32.840  0.1562E-83  0.1120E-82
 -32.830  0.1562E-83  0.1121E-82
 -32.820  0.1562E-83  0.1123E-82
 -32.810  0.1562E-83  0.1124E-82
 -32.800  0.1562E-83  0.1126E-82
 -32.790  0.1562E-83  0.1127E-82
 -32.780  0.1562E-83  0.1129E-82
 -32.770  0.1562E-83  0.1131E-82
 -32.760  0.1562E-83  0.1132E-82
 -32.750  0.1562E-83  0.1134E-82
 -32.740  0.1562E-83  0.1135E-82
 -32.730  0.1562E-83  0.1137E-82
 -32.720  0.1562E-83  0.1138E-82
 -32.710  0.1562E-83  0.1140E-82
 -32.700  0.1562E-83  0.1142E-82
 -32.690  0.1562E-83  0.1143E-82
 -32.680  0.1562E-83  0.1145E-82
 -32.670  0.1562E-83  0.1146E-82
 -32.660  0.1562E-83  0.1148E-82
 -32.650  0.1562E-83  0.1149E-82
 -32.640  0.1562E-83  0.1151E-82
 -32.630  0.1562E-83  0.1152E-82
 -32.620  0.1562E-83  0.1154E-82
 -32.610  0.1562E-83  0.1156E-82
 -32.600  0.1562E-83  0.1157E-82
 -32.590  0.1562E-83  0.1159E-82
 -32.580  0.1562E-83  0.1160E-82
 -32.570  0.1562E-83  0.1162E-82
 -32.560  0.1562E-83  0.1163E-82
 -32.550  0.1562E-83  0.1165E-82
 -32.540  0.1562E-83  0.1166E-82
 -32.530  0.1562E-83  0.1168E-82
 -32.520  0.1562E-83  0.1170E-82
 -32.510  0.1562E-83  0.1171E-82
 -32.500  0.1562E-83  0.1173E-82
 -32.490  0.1562E-83  0.1174E-82
 -32.480  0.1562E-83  0.1176E-82
 -32.470  0.1562E-83  0.1177E-82
 -32.460  0.1562E-83  0.1179E-82
 -32.450  0.1562E-83  0.1181E-82
 -32.440  0.1562E-83  0.1182E-82
 -32.430  0.1562E-83  0.1184E-82
 -32.420  0.1562E-83  0.1185E-82
 -32.410  0.1562E-83  0.1187E-82
 -32.400  0.1562E-83  0.1188E-82
 -32.390  0.1562E-83  0.1190E-82
 -32.380  0.1562E-83  0.1191E-82
 -32.370  0.1562E-83  0.1193E-82
 -32.360  0.1562E-83  0.1195E-82
 -32.350  0.1562E-83  0.1196E-82
 -32.340  0.1562E-83  0.1198E-82
 -32.330  0.1562E-83  0.1199E-82
 -32.320  0.1562E-83  0.1201E-82
 -32.310  0.1562E-83  0.1202E-82
 -32.300  0.1562E-83  0.1204E-82
 -32.290  0.1562E-83  0.1206E-82
 -32.280  0.1562E-83  0.1207E-82
 -32.270  0.1562E-83  0.1209E-82
 -32.260  0.1562E-83  0.1210E-82
 -32.250  0.1562E-83  0.1212E-82
 -32.240  0.1562E-83  0.1213E-82
 -32.230  0.1562E-83  0.1215E-82
 -32.220  0.1562E-83  0.1216E-82
 -32.210  0.1562E-83  0.1218E-82
 -32.200  0.1562E-83  0.1220E-82
 -32.190  0.1562E-83  0.1221E-82
 -32.180  0.1562E-83  0.1223E-82
 -32.170  0.1562E-83  0.1224E-82
 -32.160  0.1562E-83  0.1226E-82
 -32.150  0.1562E-83  0.1227E-82
 -32.140  0.1562E-83  0.1229E-82
 -32.130  0.1562E-83  0.1231E-82
 -32.120  0.1562E-83  0.1232E-82
 -32.110  0.1562E-83  0.1234E-82
 -32.100  0.1562E-83  0.1235E-82
 -32.090  0.1562E-83  0.1237E-82
 -32.080  0.1562E-83  0.1238E-82
 -32.070  0.1562E-83  0.1240E-82
 -32.060  0.1562E-83  0.1241E-82
 -32.050  0.1562E-83  0.1243E-82
 -32.040  0.1562E-83  0.1245E-82
 -32.030  0.1562E-83  0.1246E-82
 -32.020  0.1562E-83  0.1248E-82
 -32.010  0.1562E-83  0.1249E-82
 -32.000  0.1562E-83  0.1251E-82
 -31.990  0.1562E-83  0.1252E-82
 -31.980  0.1562E-83  0.1254E-82
 -31.970  0.1562E-83  0.1255E-82
 -31.960  0.1562E-83  0.1257E-82
 -31.950  0.1562E-83  0.1259E-82
 -31.940  0.1562E-83  0.1260E-82
 -31.930  0.1562E-83  0.1262E-82
 -31.920  0.1562E-83  0.1263E-82
 -31.910  0.1562E-83  0.1265E-82
 -31.900  0.1562E-83  0.1266E-82
 -31.890  0.1562E-83  0.1268E-82
 -31.880  0.1562E-83  0.1270E-82
 -31.870  0.1562E-83  0.1271E-82
 -31.860  0.1562E-83  0.1273E-82
 -31.850  0.1562E-83  0.1274E-82
 -31.840  0.1562E-83  0.1276E-82
 -31.830  0.1562E-83  0.1277E-82
 -31.820  0.1562E-83  0.1279E-82
 -31.810  0.1562E-83  0.1280E-82
 -31.800  0.1562E-83  0.1282E-82
 -31.790  0.1562E-83  0.1284E-82
 -31.780  0.1562E-83  0.1285E-82
 -31.770  0.1562E-83  0.1287E-82
 -31.760  0.1562E-83  0.1288E-82
 -31.750  0.1562E-83  0.1290E-82
 -31.740  0.1562E-83  0.1291E-82
 -31.730  0.1562E-83  0.1293E-82
 -31.720  0.1562E-83  0.1295E-82
 -31.710  0.1562E-83  0.1296E-82
 -31.700  0.1562E-83  0.1298E-82
 -31.690  0.1562E-83  0.1299E-82
 -31.680  0.1562E-83  0.1301E-82
 -31.670  0.1562E-83  0.1302E-82
 -31.660  0.1562E-83  0.1304E-82
 -31.650  0.1562E-83  0.1305E-82
 -31.640  0.1562E-83  0.1307E-82
 -31.630  0.1562E-83  0.1309E-82
 -31.620  0.1562E-83  0.1310E-82
 -31.610  0.1562E-83  0.1312E-82
 -31.600  0.1562E-83  0.1313E-82
 -31.590  0.1562E-83  0.1315E-82
 -31.580  0.1562E-83  0.1316E-82
 -31.570  0.1562E-83  0.1318E-82
 -31.560  0.1562E-83  0.1320E-82
 -31.550  0.1562E-83  0.1321E-82
 -31.540  0.1562E-83  0.1323E-82
 -31.530  0.1562E-83  0.1324E-82
 -31.520  0.1562E-83  0.1326E-82
 -31.510  0.1562E-83  0.1327E-82
 -31.500  0.1562E-83  0.1329E-82
 -31.490  0.1562E-83  0.1330E-82
 -31.480  0.1562E-83  0.1332E-82
 -31.470  0.1562E-83  0.1334E-82
 -31.460  0.1562E-83  0.1335E-82
 -31.450  0.1562E-83  0.1337E-82
 -31.440  0.1562E-83  0.1338E-82
 -31.430  0.1562E-83  0.1340E-82
 -31.420  0.1562E-83  0.1341E-82
 -31.410  0.1562E-83  0.1343E-82
 -31.400  0.1562E-83  0.1345E-82
 -31.390  0.1562E-83  0.1346E-82
 -31.380  0.1562E-83  0.1348E-82
 -31.370  0.1562E-83  0.1349E-82
 -31.360  0.1562E-83  0.1351E-82
 -31.350  0.1562E-83  0.1352E-82
 -31.340  0.1562E-83  0.1354E-82
 -31.330  0.1562E-83  0.1355E-82
 -31.320  0.1562E-83  0.1357E-82
 -31.310  0.1562E-83  0.1359E-82
 -31.300  0.1562E-83  0.1360E-82
 -31.290  0.1562E-83  0.1362E-82
 -31.280  0.1562E-83  0.1363E-82
 -31.270  0.1562E-83  0.1365E-82
 -31.260  0.1562E-83  0.1366E-82
 -31.250  0.1562E-83  0.1368E-82
 -31.240  0.1562E-83  0.1369E-82
 -31.230  0.1562E-83  0.1371E-82
 -31.220  0.1562E-83  0.1373E-82
 -31.210  0.1562E-83  0.1374E-82
 -31.200  0.1562E-83  0.1376E-82
 -31.190  0.1562E-83  0.1377E-82
 -31.180  0.1562E-83  0.1379E-82
 -31.170  0.1562E-83  0.1380E-82
 -31.160  0.1562E-83  0.1382E-82
 -31.150  0.1562E-83  0.1384E-82
 -31.140  0.1562E-83  0.1385E-82
 -31.130  0.1562E-83  0.1387E-82
 -31.120  0.1562E-83  0.1388E-82
 -31.110  0.1562E-83  0.1390E-82
 -31.100  0.1562E-83  0.1391E-82
 -31.090  0.1562E-83  0.1393E-82
 -31.080  0.1562E-83  0.1394E-82
 -31.070  0.1562E-83  0.1396E-82
 -31.060  0.1562E-83  0.1398E-82
 -31.050  0.1562E-83  0.1399E-82
 -31.040  0.1562E-83  0.1401E-82
 -31.030  0.1562E-83  0.1402E-82
 -31.020  0.1562E-83  0.1404E-82
 -31.010  0.1562E-83  0.1405E-82
 -31.000  0.1562E-83  0.1407E-82
 -30.990  0.1562E-83  0.1409E-82
 -30.980  0.1562E-83  0.1410E-82
 -30.970  0.1562E-83  0.1412E-82
 -30.960  0.1562E-83  0.1413E-82
 -30.950  0.1562E-83  0.1415E-82
 -30.940  0.1562E-83  0.1416E-82
 -30.930  0.1562E-83  0.1418E-82
 -30.920  0.1562E-83  0.1419E-82
 -30.910  0.1562E-83  0.1421E-82
 -30.900  0.1562E-83  0.1423E-82
 -30.890  0.1562E-83  0.1424E-82
 -30.880  0.1562E-83  0.1426E-82
 -30.870  0.1562E-83  0.1427E-82
 -30.860  0.1562E-83  0.1429E-82
 -30.850  0.1562E-83  0.1430E-82
 -30.840  0.1562E-83  0.1432E-82
 -30.830  0.1562E-83  0.1434E-82
 -30.820  0.1562E-83  0.1435E-82
 -30.810  0.1562E-83  0.1437E-82
 -30.800  0.1562E-83  0.1438E-82
 -30.790  0.1562E-83  0.1440E-82
 -30.780  0.1562E-83  0.1441E-82
 -30.770  0.1562E-83  0.1443E-82
 -30.760  0.1562E-83  0.1444E-82
 -30.750  0.1562E-83  0.1446E-82
 -30.740  0.1562E-83  0.1448E-82
 -30.730  0.1562E-83  0.1449E-82
 -30.720  0.1562E-83  0.1451E-82
 -30.710  0.1562E-83  0.1452E-82
 -30.700  0.1562E-83  0.1454E-82
 -30.690  0.1562E-83  0.1455E-82
 -30.680  0.1562E-83  0.1457E-82
 -30.670  0.1562E-83  0.1458E-82
 -30.660  0.1562E-83  0.1460E-82
 -30.650  0.1562E-83  0.1462E-82
 -30.640  0.1562E-83  0.1463E-82
 -30.630  0.1562E-83  0.1465E-82
 -30.620  0.1562E-83  0.1466E-82
 -30.610  0.1562E-83  0.1468E-82
 -30.600  0.1562E-83  0.1469E-82
 -30.590  0.1562E-83  0.1471E-82
 -30.580  0.1562E-83  0.1473E-82
 -30.570  0.1562E-83  0.1474E-82
 -30.560  0.1562E-83  0.1476E-82
 -30.550  0.1562E-83  0.1477E-82
 -30.540  0.1562E-83  0.1479E-82
 -30.530  0.1562E-83  0.1480E-82
 -30.520  0.1562E-83  0.1482E-82
 -30.510  0.1562E-83  0.1483E-82
 -30.500  0.1562E-83  0.1485E-82
 -30.490  0.1562E-83  0.1487E-82
 -30.480  0.1562E-83  0.1488E-82
 -30.470  0.1562E-83  0.1490E-82
 -30.460  0.1562E-83  0.1491E-82
 -30.450  0.1562E-83  0.1493E-82
 -30.440  0.1562E-83  0.1494E-82
 -30.430  0.1562E-83  0.1496E-82
 -30.420  0.1562E-83  0.1498E-82
 -30.410  0.1562E-83  0.1499E-82
 -30.400  0.1562E-83  0.1501E-82
 -30.390  0.1562E-83  0.1502E-82
 -30.380  0.1562E-83  0.1504E-82
 -30.370  0.1562E-83  0.1505E-82
 -30.360  0.1562E-83  0.1507E-82
 -30.350  0.1562E-83  0.1508E-82
 -30.340  0.1562E-83  0.1510E-82
 -30.330  0.1562E-83  0.1512E-82
 -30.320  0.1562E-83  0.1513E-82
 -30.310  0.1562E-83  0.1515E-82
 -30.300  0.1562E-83  0.1516E-82
 -30.290  0.1562E-83  0.1518E-82
 -30.280  0.1562E-83  0.1519E-82
 -30.270  0.1562E-83  0.1521E-82
 -30.260  0.1562E-83  0.1523E-82
 -30.250  0.1562E-83  0.1524E-82
 -30.240  0.1562E-83  0.1526E-82
 -30.230  0.1562E-83  0.1527E-82
 -30.220  0.1562E-83  0.1529E-82
 -30.210  0.1562E-83  0.1530E-82
 -30.200  0.1562E-83  0.1532E-82
 -30.190  0.1562E-83  0.1533E-82
 -30.180  0.1562E-83  0.1535E-82
 -30.170  0.1562E-83  0.1537E-82
 -30.160  0.1562E-83  0.1538E-82
 -30.150  0.1562E-83  0.1540E-82
 -30.140  0.1562E-83  0.1541E-82
 -30.130  0.1562E-83  0.1543E-82
 -30.120  0.1562E-83  0.1544E-82
 -30.110  0.1562E-83  0.1546E-82
 -30.100  0.1562E-83  0.1548E-82
 -30.090  0.1562E-83  0.1549E-82
 -30.080  0.1562E-83  0.1551E-82
 -30.070  0.1562E-83  0.1552E-82
 -30.060  0.1562E-83  0.1554E-82
 -30.050  0.1562E-83  0.1555E-82
 -30.040  0.1562E-83  0.1557E-82
 -30.030  0.1562E-83  0.1558E-82
 -30.020  0.1562E-83  0.1560E-82
 -30.010  0.1562E-83  0.1562E-82
 -30.000  0.1562E-83  0.1563E-82
 -29.990  0.1562E-83  0.1565E-82
 -29.980  0.1562E-83  0.1566E-82
 -29.970  0.1562E-83  0.1568E-82
 -29.960  0.1562E-83  0.1569E-82
 -29.950  0.1562E-83  0.1571E-82
 -29.940  0.1562E-83  0.1572E-82
 -29.930  0.1562E-83  0.1574E-82
 -29.920  0.1562E-83  0.1576E-82
 -29.910  0.1562E-83  0.1577E-82
 -29.900  0.1562E-83  0.1579E-82
 -29.890  0.1562E-83  0.1580E-82
 -29.880  0.1562E-83  0.1582E-82
 -29.870  0.1562E-83  0.1583E-82
 -29.860  0.1562E-83  0.1585E-82
 -29.850  0.1562E-83  0.1587E-82
 -29.840  0.1562E-83  0.1588E-82
 -29.830  0.1562E-83  0.1590E-82
 -29.820  0.1562E-83  0.1591E-82
 -29.810  0.1562E-83  0.1593E-82
 -29.800  0.1562E-83  0.1594E-82
 -29.790  0.1562E-83  0.1596E-82
 -29.780  0.1562E-83  0.1597E-82
 -29.770  0.1562E-83  0.1599E-82
 -29.760  0.1562E-83  0.1601E-82
 -29.750  0.1562E-83  0.1602E-82
 -29.740  0.1562E-83  0.1604E-82
 -29.730  0.1562E-83  0.1605E-82
 -29.720  0.1562E-83  0.1607E-82
 -29.710  0.1562E-83  0.1608E-82
 -29.700  0.1562E-83  0.1610E-82
 -29.690  0.1562E-83  0.1612E-82
 -29.680  0.1562E-83  0.1613E-82
 -29.670  0.1562E-83  0.1615E-82
 -29.660  0.1562E-83  0.1616E-82
 -29.650  0.1562E-83  0.1618E-82
 -29.640  0.1562E-83  0.1619E-82
 -29.630  0.1562E-83  0.1621E-82
 -29.620  0.1562E-83  0.1622E-82
 -29.610  0.1562E-83  0.1624E-82
 -29.600  0.1562E-83  0.1626E-82
 -29.590  0.1562E-83  0.1627E-82
 -29.580  0.1562E-83  0.1629E-82
 -29.570  0.1562E-83  0.1630E-82
 -29.560  0.1562E-83  0.1632E-82
 -29.550  0.1562E-83  0.1633E-82
 -29.540  0.1562E-83  0.1635E-82
 -29.530  0.1562E-83  0.1637E-82
 -29.520  0.1562E-83  0.1638E-82
 -29.510  0.1562E-83  0.1640E-82
 -29.500  0.1562E-83  0.1641E-82
 -29.490  0.1562E-83  0.1643E-82
 -29.480  0.1562E-83  0.1644E-82
 -29.470  0.1562E-83  0.1646E-82
 -29.460  0.1562E-83  0.1647E-82
 -29.450  0.1562E-83  0.1649E-82
 -29.440  0.1562E-83  0.1651E-82
 -29.430  0.1562E-83  0.1652E-82
 -29.420  0.1562E-83  0.1654E-82
 -29.410  0.1562E-83  0.1655E-82
 -29.400  0.1562E-83  0.1657E-82
 -29.390  0.1562E-83  0.1658E-82
 -29.380  0.1562E-83  0.1660E-82
 -29.370  0.1562E-83  0.1661E-82
 -29.360  0.1562E-83  0.1663E-82
 -29.350  0.1562E-83  0.1665E-82
 -29.340  0.1562E-83  0.1666E-82
 -29.330  0.1562E-83  0.1668E-82
 -29.320  0.1562E-83  0.1669E-82
 -29.310  0.1562E-83  0.1671E-82
 -29.300  0.1562E-83  0.1672E-82
 -29.290  0.1562E-83  0.1674E-82
 -29.280  0.1562E-83  0.1676E-82
 -29.270  0.1562E-83  0.1677E-82
 -29.260  0.1562E-83  0.1679E-82
 -29.250  0.1562E-83  0.1680E-82
 -29.240  0.1562E-83  0.1682E-82
 -29.230  0.1562E-83  0.1683E-82
 -29.220  0.1562E-83  0.1685E-82
 -29.210  0.1562E-83  0.1686E-82
 -29.200  0.1562E-83  0.1688E-82
 -29.190  0.1562E-83  0.1690E-82
 -29.180  0.1562E-83  0.1691E-82
 -29.170  0.1562E-83  0.1693E-82
 -29.160  0.1562E-83  0.1694E-82
 -29.150  0.1562E-83  0.1696E-82
 -29.140  0.1562E-83  0.1697E-82
 -29.130  0.1562E-83  0.1699E-82
 -29.120  0.1562E-83  0.1701E-82
 -29.110  0.1562E-83  0.1702E-82
 -29.100  0.1562E-83  0.1704E-82
 -29.090  0.1562E-83  0.1705E-82
 -29.080  0.1562E-83  0.1707E-82
 -29.070  0.1562E-83  0.1708E-82
 -29.060  0.1562E-83  0.1710E-82
 -29.050  0.1562E-83  0.1711E-82
 -29.040  0.1562E-83  0.1713E-82
 -29.030  0.1562E-83  0.1715E-82
 -29.020  0.1562E-83  0.1716E-82
 -29.010  0.1562E-83  0.1718E-82
 -29.000  0.1562E-83  0.1719E-82
 -28.990  0.1562E-83  0.1721E-82
 -28.980  0.1562E-83  0.1722E-82
 -28.970  0.1562E-83  0.1724E-82
 -28.960  0.1562E-83  0.1726E-82
 -28.950  0.1562E-83  0.1727E-82
 -28.940  0.1562E-83  0.1729E-82
 -28.930  0.1562E-83  0.1730E-82
 -28.920  0.1562E-83  0.1732E-82
 -28.910  0.1562E-83  0.1733E-82
 -28.900  0.1562E-83  0.1735E-82
 -28.890  0.1562E-83  0.1736E-82
 -28.880  0.1562E-83  0.1738E-82
 -28.870  0.1562E-83  0.1740E-82
 -28.860  0.1562E-83  0.1741E-82
 -28.850  0.1562E-83  0.1743E-82
 -28.840  0.1562E-83  0.1744E-82
 -28.830  0.1562E-83  0.1746E-82
 -28.820  0.1562E-83  0.1747E-82
 -28.810  0.1562E-83  0.1749E-82
 -28.800  0.1562E-83  0.1751E-82
 -28.790  0.1562E-83  0.1752E-82
 -28.780  0.1562E-83  0.1754E-82
 -28.770  0.1562E-83  0.1755E-82
 -28.760  0.1562E-83  0.1757E-82
 -28.750  0.1562E-83  0.1758E-82
 -28.740  0.1562E-83  0.1760E-82
 -28.730  0.1562E-83  0.1761E-82
 -28.720  0.1562E-83  0.1763E-82
 -28.710  0.1562E-83  0.1765E-82
 -28.700  0.1562E-83  0.1766E-82
 -28.690  0.1562E-83  0.1768E-82
 -28.680  0.1562E-83  0.1769E-82
 -28.670  0.1562E-83  0.1771E-82
 -28.660  0.1562E-83  0.1772E-82
 -28.650  0.1562E-83  0.1774E-82
 -28.640  0.1562E-83  0.1775E-82
 -28.630  0.1562E-83  0.1777E-82
 -28.620  0.1562E-83  0.1779E-82
 -28.610  0.1562E-83  0.1780E-82
 -28.600  0.1562E-83  0.1782E-82
 -28.590  0.1562E-83  0.1783E-82
 -28.580  0.1562E-83  0.1785E-82
 -28.570  0.1562E-83  0.1786E-82
 -28.560  0.1562E-83  0.1788E-82
 -28.550  0.1562E-83  0.1790E-82
 -28.540  0.1562E-83  0.1791E-82
 -28.530  0.1562E-83  0.1793E-82
 -28.520  0.1562E-83  0.1794E-82
 -28.510  0.1562E-83  0.1796E-82
 -28.500  0.1562E-83  0.1797E-82
 -28.490  0.1562E-83  0.1799E-82
 -28.480  0.1562E-83  0.1800E-82
 -28.470  0.1562E-83  0.1802E-82
 -28.460  0.1562E-83  0.1804E-82
 -28.450  0.1562E-83  0.1805E-82
 -28.440  0.1562E-83  0.1807E-82
 -28.430  0.1562E-83  0.1808E-82
 -28.420  0.1562E-83  0.1810E-82
 -28.410  0.1562E-83  0.1811E-82
 -28.400  0.1562E-83  0.1813E-82
 -28.390  0.1562E-83  0.1815E-82
 -28.380  0.1562E-83  0.1816E-82
 -28.370  0.1562E-83  0.1818E-82
 -28.360  0.1562E-83  0.1819E-82
 -28.350  0.1562E-83  0.1821E-82
 -28.340  0.1562E-83  0.1822E-82
 -28.330  0.1562E-83  0.1824E-82
 -28.320  0.1562E-83  0.1825E-82
 -28.310  0.1562E-83  0.1827E-82
 -28.300  0.1562E-83  0.1829E-82
 -28.290  0.1562E-83  0.1830E-82
 -28.280  0.1562E-83  0.1832E-82
 -28.270  0.1562E-83  0.1833E-82
 -28.260  0.1562E-83  0.1835E-82
 -28.250  0.1562E-83  0.1836E-82
 -28.240  0.1562E-83  0.1838E-82
 -28.230  0.1562E-83  0.1840E-82
 -28.220  0.1562E-83  0.1841E-82
 -28.210  0.1562E-83  0.1843E-82
 -28.200  0.1562E-83  0.1844E-82
 -28.190  0.1562E-83  0.1846E-82
 -28.180  0.1562E-83  0.1847E-82
 -28.170  0.1562E-83  0.1849E-82
 -28.160  0.1562E-83  0.1850E-82
 -28.150  0.1562E-83  0.1852E-82
 -28.140  0.1562E-83  0.1854E-82
 -28.130  0.1562E-83  0.1855E-82
 -28.120  0.1562E-83  0.1857E-82
 -28.110  0.1562E-83  0.1858E-82
 -28.100  0.1562E-83  0.1860E-82
 -28.090  0.1562E-83  0.1861E-82
 -28.080  0.1562E-83  0.1863E-82
 -28.070  0.1562E-83  0.1865E-82
 -28.060  0.1562E-83  0.1866E-82
 -28.050  0.1562E-83  0.1868E-82
 -28.040  0.1562E-83  0.1869E-82
 -28.030  0.1562E-83  0.1871E-82
 -28.020  0.1562E-83  0.1872E-82
 -28.010  0.1562E-83  0.1874E-82
 -28.000  0.1562E-83  0.1875E-82
 -27.990  0.1562E-83  0.1877E-82
 -27.980  0.1562E-83  0.1879E-82
 -27.970  0.1562E-83  0.1880E-82
 -27.960  0.1562E-83  0.1882E-82
 -27.950  0.1562E-83  0.1883E-82
 -27.940  0.1562E-83  0.1885E-82
 -27.930  0.1562E-83  0.1886E-82
 -27.920  0.1562E-83  0.1888E-82
 -27.910  0.1562E-83  0.1889E-82
 -27.900  0.1562E-83  0.1891E-82
 -27.890  0.1562E-83  0.1893E-82
 -27.880  0.1562E-83  0.1894E-82
 -27.870  0.1562E-83  0.1896E-82
 -27.860  0.1562E-83  0.1897E-82
 -27.850  0.1562E-83  0.1899E-82
 -27.840  0.1562E-83  0.1900E-82
 -27.830  0.1562E-83  0.1902E-82
 -27.820  0.1562E-83  0.1904E-82
 -27.810  0.1562E-83  0.1905E-82
 -27.800  0.1562E-83  0.1907E-82
 -27.790  0.1562E-83  0.1908E-82
 -27.780  0.1562E-83  0.1910E-82
 -27.770  0.1562E-83  0.1911E-82
 -27.760  0.1562E-83  0.1913E-82
 -27.750  0.1562E-83  0.1914E-82
 -27.740  0.1562E-83  0.1916E-82
 -27.730  0.1562E-83  0.1918E-82
 -27.720  0.1562E-83  0.1919E-82
 -27.710  0.1562E-83  0.1921E-82
 -27.700  0.1562E-83  0.1922E-82
 -27.690  0.1562E-83  0.1924E-82
 -27.680  0.1562E-83  0.1925E-82
 -27.670  0.1562E-83  0.1927E-82
 -27.660  0.1562E-83  0.1929E-82
 -27.650  0.1562E-83  0.1930E-82
 -27.640  0.1562E-83  0.1932E-82
 -27.630  0.1562E-83  0.1933E-82
 -27.620  0.1562E-83  0.1935E-82
 -27.610  0.1562E-83  0.1936E-82
 -27.600  0.1562E-83  0.1938E-82
 -27.590  0.1562E-83  0.1939E-82
 -27.580  0.1562E-83  0.1941E-82
 -27.570  0.1562E-83  0.1943E-82
 -27.560  0.1562E-83  0.1944E-82
 -27.550  0.1562E-83  0.1946E-82
 -27.540  0.1562E-83  0.1947E-82
 -27.530  0.1562E-83  0.1949E-82
 -27.520  0.1562E-83  0.1950E-82
 -27.510  0.1562E-83  0.1952E-82
 -27.500  0.1562E-83  0.1954E-82
 -27.490  0.1562E-83  0.1955E-82
 -27.480  0.1562E-83  0.1957E-82
 -27.470  0.1562E-83  0.1958E-82
 -27.460  0.1562E-83  0.1960E-82
 -27.450  0.1562E-83  0.1961E-82
 -27.440  0.1562E-83  0.1963E-82
 -27.430  0.1562E-83  0.1964E-82
 -27.420  0.1562E-83  0.1966E-82
 -27.410  0.1562E-83  0.1968E-82
 -27.400  0.1562E-83  0.1969E-82
 -27.390  0.1562E-83  0.1971E-82
 -27.380  0.1562E-83  0.1972E-82
 -27.370  0.1562E-83  0.1974E-82
 -27.360  0.1562E-83  0.1975E-82
 -27.350  0.1562E-83  0.1977E-82
 -27.340  0.1562E-83  0.1978E-82
 -27.330  0.1562E-83  0.1980E-82
 -27.320  0.1562E-83  0.1982E-82
 -27.310  0.1562E-83  0.1983E-82
 -27.300  0.1562E-83  0.1985E-82
 -27.290  0.1562E-83  0.1986E-82
 -27.280  0.1562E-83  0.1988E-82
 -27.270  0.1562E-83  0.1989E-82
 -27.260  0.1562E-83  0.1991E-82
 -27.250  0.1562E-83  0.1993E-82
 -27.240  0.1562E-83  0.1994E-82
 -27.230  0.1562E-83  0.1996E-82
 -27.220  0.1562E-83  0.1997E-82
 -27.210  0.1562E-83  0.1999E-82
 -27.200  0.1562E-83  0.2000E-82
 -27.190  0.1562E-83  0.2002E-82
 -27.180  0.1562E-83  0.2003E-82
 -27.170  0.1562E-83  0.2005E-82
 -27.160  0.1562E-83  0.2007E-82
 -27.150  0.1562E-83  0.2008E-82
 -27.140  0.1562E-83  0.2010E-82
 -27.130  0.1562E-83  0.2011E-82
 -27.120  0.1562E-83  0.2013E-82
 -27.110  0.1562E-83  0.2014E-82
 -27.100  0.1562E-83  0.2016E-82
 -27.090  0.1562E-83  0.2018E-82
 -27.080  0.1562E-83  0.2019E-82
 -27.070  0.1562E-83  0.2021E-82
 -27.060  0.1562E-83  0.2022E-82
 -27.050  0.1562E-83  0.2024E-82
 -27.040  0.1562E-83  0.2025E-82
 -27.030  0.1562E-83  0.2027E-82
 -27.020  0.1562E-83  0.2028E-82
 -27.010  0.1562E-83  0.2030E-82
 -27.000  0.1562E-83  0.2032E-82
 -26.990  0.1562E-83  0.2033E-82
 -26.980  0.1562E-83  0.2035E-82
 -26.970  0.1562E-83  0.2036E-82
 -26.960  0.1562E-83  0.2038E-82
 -26.950  0.1562E-83  0.2039E-82
 -26.940  0.1562E-83  0.2041E-82
 -26.930  0.1562E-83  0.2043E-82
 -26.920  0.1562E-83  0.2044E-82
 -26.910  0.1562E-83  0.2046E-82
 -26.900  0.1562E-83  0.2047E-82
 -26.890  0.1562E-83  0.2049E-82
 -26.880  0.1562E-83  0.2050E-82
 -26.870  0.1562E-83  0.2052E-82
 -26.860  0.1562E-83  0.2053E-82
 -26.850  0.1562E-83  0.2055E-82
 -26.840  0.1562E-83  0.2057E-82
 -26.830  0.1562E-83  0.2058E-82
 -26.820  0.1562E-83  0.2060E-82
 -26.810  0.1562E-83  0.2061E-82
 -26.800  0.1562E-83  0.2063E-82
 -26.790  0.1562E-83  0.2064E-82
 -26.780  0.1562E-83  0.2066E-82
 -26.770  0.1562E-83  0.2068E-82
 -26.760  0.1562E-83  0.2069E-82
 -26.750  0.1562E-83  0.2071E-82
 -26.740  0.1562E-83  0.2072E-82
 -26.730  0.1562E-83  0.2074E-82
 -26.720  0.1562E-83  0.2075E-82
 -26.710  0.1562E-83  0.2077E-82
 -26.700  0.1562E-83  0.2078E-82
 -26.690  0.1562E-83  0.2080E-82
 -26.680  0.1562E-83  0.2082E-82
 -26.670  0.1562E-83  0.2083E-82
 -26.660  0.1562E-83  0.2085E-82
 -26.650  0.1562E-83  0.2086E-82
 -26.640  0.1562E-83  0.2088E-82
 -26.630  0.1562E-83  0.2089E-82
 -26.620  0.1562E-83  0.2091E-82
 -26.610  0.1562E-83  0.2092E-82
 -26.600  0.1562E-83  0.2094E-82
 -26.590  0.1562E-83  0.2096E-82
 -26.580  0.1562E-83  0.2097E-82
 -26.570  0.1562E-83  0.2099E-82
 -26.560  0.1562E-83  0.2100E-82
 -26.550  0.1562E-83  0.2102E-82
 -26.540  0.1562E-83  0.2103E-82
 -26.530  0.1562E-83  0.2105E-82
 -26.520  0.1562E-83  0.2107E-82
 -26.510  0.1562E-83  0.2108E-82
 -26.500  0.1562E-83  0.2110E-82
 -26.490  0.1562E-83  0.2111E-82
 -26.480  0.1562E-83  0.2113E-82
 -26.470  0.1562E-83  0.2114E-82
 -26.460  0.1562E-83  0.2116E-82
 -26.450  0.1562E-83  0.2117E-82
 -26.440  0.1562E-83  0.2119E-82
 -26.430  0.1562E-83  0.2121E-82
 -26.420  0.1562E-83  0.2122E-82
 -26.410  0.1562E-83  0.2124E-82
 -26.400  0.1562E-83  0.2125E-82
 -26.390  0.1562E-83  0.2127E-82
 -26.380  0.1562E-83  0.2128E-82
 -26.370  0.1562E-83  0.2130E-82
 -26.360  0.1562E-83  0.2132E-82
 -26.350  0.1562E-83  0.2133E-82
 -26.340  0.1562E-83  0.2135E-82
 -26.330  0.1562E-83  0.2136E-82
 -26.320  0.1562E-83  0.2138E-82
 -26.310  0.1562E-83  0.2139E-82
 -26.300  0.1562E-83  0.2141E-82
 -26.290  0.1562E-83  0.2142E-82
 -26.280  0.1562E-83  0.2144E-82
 -26.270  0.1562E-83  0.2146E-82
 -26.260  0.1562E-83  0.2147E-82
 -26.250  0.1562E-83  0.2149E-82
 -26.240  0.1562E-83  0.2150E-82
 -26.230  0.1562E-83  0.2152E-82
 -26.220  0.1562E-83  0.2153E-82
 -26.210  0.1562E-83  0.2155E-82
 -26.200  0.1562E-83  0.2157E-82
 -26.190  0.1562E-83  0.2158E-82
 -26.180  0.1562E-83  0.2160E-82
 -26.170  0.1562E-83  0.2161E-82
 -26.160  0.1562E-83  0.2163E-82
 -26.150  0.1562E-83  0.2164E-82
 -26.140  0.1562E-83  0.2166E-82
 -26.130  0.1562E-83  0.2167E-82
 -26.120  0.1562E-83  0.2169E-82
 -26.110  0.1562E-83  0.2171E-82
 -26.100  0.1562E-83  0.2172E-82
 -26.090  0.1562E-83  0.2174E-82
 -26.080  0.1562E-83  0.2175E-82
 -26.070  0.1562E-83  0.2177E-82
 -26.060  0.1562E-83  0.2178E-82
 -26.050  0.1562E-83  0.2180E-82
 -26.040  0.1562E-83  0.2181E-82
 -26.030  0.1562E-83  0.2183E-82
 -26.020  0.1562E-83  0.2185E-82
 -26.010  0.1562E-83  0.2186E-82
 -26.000  0.1562E-83  0.2188E-82
 -25.990  0.1562E-83  0.2189E-82
 -25.980  0.1562E-83  0.2191E-82
 -25.970  0.1562E-83  0.2192E-82
 -25.960  0.1562E-83  0.2194E-82
 -25.950  0.1562E-83  0.2196E-82
 -25.940  0.1562E-83  0.2197E-82
 -25.930  0.1562E-83  0.2199E-82
 -25.920  0.1562E-83  0.2200E-82
 -25.910  0.1562E-83  0.2202E-82
 -25.900  0.1562E-83  0.2203E-82
 -25.890  0.1562E-83  0.2205E-82
 -25.880  0.1562E-83  0.2206E-82
 -25.870  0.1562E-83  0.2208E-82
 -25.860  0.1562E-83  0.2210E-82
 -25.850  0.1562E-83  0.2211E-82
 -25.840  0.1562E-83  0.2213E-82
 -25.830  0.1562E-83  0.2214E-82
 -25.820  0.1562E-83  0.2216E-82
 -25.810  0.1562E-83  0.2217E-82
 -25.800  0.1562E-83  0.2219E-82
 -25.790  0.1562E-83  0.2221E-82
 -25.780  0.1562E-83  0.2222E-82
 -25.770  0.1562E-83  0.2224E-82
 -25.760  0.1562E-83  0.2225E-82
 -25.750  0.1562E-83  0.2227E-82
 -25.740  0.1562E-83  0.2228E-82
 -25.730  0.1562E-83  0.2230E-82
 -25.720  0.1562E-83  0.2231E-82
 -25.710  0.1562E-83  0.2233E-82
 -25.700  0.1562E-83  0.2235E-82
 -25.690  0.1562E-83  0.2236E-82
 -25.680  0.1562E-83  0.2238E-82
 -25.670  0.1562E-83  0.2239E-82
 -25.660  0.1562E-83  0.2241E-82
 -25.650  0.1562E-83  0.2242E-82
 -25.640  0.1562E-83  0.2244E-82
 -25.630  0.1562E-83  0.2246E-82
 -25.620  0.1562E-83  0.2247E-82
 -25.610  0.1562E-83  0.2249E-82
 -25.600  0.1562E-83  0.2250E-82
 -25.590  0.1562E-83  0.2252E-82
 -25.580  0.1562E-83  0.2253E-82
 -25.570  0.1562E-83  0.2255E-82
 -25.560  0.1562E-83  0.2256E-82
 -25.550  0.1562E-83  0.2258E-82
 -25.540  0.1562E-83  0.2260E-82
 -25.530  0.1562E-83  0.2261E-82
 -25.520  0.1562E-83  0.2263E-82
 -25.510  0.1562E-83  0.2264E-82
 -25.500  0.1562E-83  0.2266E-82
 -25.490  0.1562E-83  0.2267E-82
 -25.480  0.1562E-83  0.2269E-82
 -25.470  0.1562E-83  0.2271E-82
 -25.460  0.1562E-83  0.2272E-82
 -25.450  0.1562E-83  0.2274E-82
 -25.440  0.1562E-83  0.2275E-82
 -25.430  0.1562E-83  0.2277E-82
 -25.420  0.1562E-83  0.2278E-82
 -25.410  0.1562E-83  0.2280E-82
 -25.400  0.1562E-83  0.2281E-82
 -25.390  0.1562E-83  0.2283E-82
 -25.380  0.1562E-83  0.2285E-82
 -25.370  0.1562E-83  0.2286E-82
 -25.360  0.1562E-83  0.2288E-82
 -25.350  0.1562E-83  0.2289E-82
 -25.340  0.1562E-83  0.2291E-82
 -25.330  0.1562E-83  0.2292E-82
 -25.320  0.1562E-83  0.2294E-82
 -25.310  0.1562E-83  0.2295E-82
 -25.300  0.1562E-83  0.2297E-82
 -25.290  0.1562E-83  0.2299E-82
 -25.280  0.1562E-83  0.2300E-82
 -25.270  0.1562E-83  0.2302E-82
 -25.260  0.1562E-83  0.2303E-82
 -25.250  0.1562E-83  0.2305E-82
 -25.240  0.1562E-83  0.2306E-82
 -25.230  0.1562E-83  0.2308E-82
 -25.220  0.1562E-83  0.2310E-82
 -25.210  0.1562E-83  0.2311E-82
 -25.200  0.1562E-83  0.2313E-82
 -25.190  0.1562E-83  0.2314E-82
 -25.180  0.1562E-83  0.2316E-82
 -25.170  0.1562E-83  0.2317E-82
 -25.160  0.1562E-83  0.2319E-82
 -25.150  0.1562E-83  0.2320E-82
 -25.140  0.1562E-83  0.2322E-82
 -25.130  0.1562E-83  0.2324E-82
 -25.120  0.1562E-83  0.2325E-82
 -25.110  0.1562E-83  0.2327E-82
 -25.100  0.1562E-83  0.2328E-82
 -25.090  0.1562E-83  0.2330E-82
 -25.080  0.1562E-83  0.2331E-82
 -25.070  0.1562E-83  0.2333E-82
 -25.060  0.1562E-83  0.2335E-82
 -25.050  0.1562E-83  0.2336E-82
 -25.040  0.1562E-83  0.2338E-82
 -25.030  0.1562E-83  0.2339E-82
 -25.020  0.1562E-83  0.2341E-82
 -25.010  0.1562E-83  0.2342E-82
 -25.000  0.1562E-83  0.2344E-82
 -24.990  0.1562E-83  0.2345E-82
 -24.980  0.1562E-83  0.2347E-82
 -24.970  0.1562E-83  0.2349E-82
 -24.960  0.1562E-83  0.2350E-82
 -24.950  0.1562E-83  0.2352E-82
 -24.940  0.1562E-83  0.2353E-82
 -24.930  0.1562E-83  0.2355E-82
 -24.920  0.1562E-83  0.2356E-82
 -24.910  0.1562E-83  0.2358E-82
 -24.900  0.1562E-83  0.2360E-82
 -24.890  0.1562E-83  0.2361E-82
 -24.880  0.1562E-83  0.2363E-82
 -24.870  0.1562E-83  0.2364E-82
 -24.860  0.1562E-83  0.2366E-82
 -24.850  0.1562E-83  0.2367E-82
 -24.840  0.1562E-83  0.2369E-82
 -24.830  0.1562E-83  0.2370E-82
 -24.820  0.1562E-83  0.2372E-82
 -24.810  0.1562E-83  0.2374E-82
 -24.800  0.1562E-83  0.2375E-82
 -24.790  0.1562E-83  0.2377E-82
 -24.780  0.1562E-83  0.2378E-82
 -24.770  0.1562E-83  0.2380E-82
 -24.760  0.1562E-83  0.2381E-82
 -24.750  0.1562E-83  0.2383E-82
 -24.740  0.1562E-83  0.2385E-82
 -24.730  0.1562E-83  0.2386E-82
 -24.720  0.1562E-83  0.2388E-82
 -24.710  0.1562E-83  0.2389E-82
 -24.700  0.1562E-83  0.2391E-82
 -24.690  0.1562E-83  0.2392E-82
 -24.680  0.1562E-83  0.2394E-82
 -24.670  0.1562E-83  0.2395E-82
 -24.660  0.1562E-83  0.2397E-82
 -24.650  0.1562E-83  0.2399E-82
 -24.640  0.1562E-83  0.2400E-82
 -24.630  0.1562E-83  0.2402E-82
 -24.620  0.1562E-83  0.2403E-82
 -24.610  0.1562E-83  0.2405E-82
 -24.600  0.1562E-83  0.2406E-82
 -24.590  0.1562E-83  0.2408E-82
 -24.580  0.1562E-83  0.2409E-82
 -24.570  0.1562E-83  0.2411E-82
 -24.560  0.1562E-83  0.2413E-82
 -24.550  0.1562E-83  0.2414E-82
 -24.540  0.1562E-83  0.2416E-82
 -24.530  0.1562E-83  0.2417E-82
 -24.520  0.1562E-83  0.2419E-82
 -24.510  0.1562E-83  0.2420E-82
 -24.500  0.1562E-83  0.2422E-82
 -24.490  0.1562E-83  0.2424E-82
 -24.480  0.1562E-83  0.2425E-82
 -24.470  0.1562E-83  0.2427E-82
 -24.460  0.1562E-83  0.2428E-82
 -24.450  0.1562E-83  0.2430E-82
 -24.440  0.1562E-83  0.2431E-82
 -24.430  0.1562E-83  0.2433E-82
 -24.420  0.1562E-83  0.2434E-82
 -24.410  0.1562E-83  0.2436E-82
 -24.400  0.1562E-83  0.2438E-82
 -24.390  0.1562E-83  0.2439E-82
 -24.380  0.1562E-83  0.2441E-82
 -24.370  0.1562E-83  0.2442E-82
 -24.360  0.1562E-83  0.2444E-82
 -24.350  0.1562E-83  0.2445E-82
 -24.340  0.1562E-83  0.2447E-82
 -24.330  0.1562E-83  0.2449E-82
 -24.320  0.1562E-83  0.2450E-82
 -24.310  0.1562E-83  0.2452E-82
 -24.300  0.1562E-83  0.2453E-82
 -24.290  0.1562E-83  0.2455E-82
 -24.280  0.1562E-83  0.2456E-82
 -24.270  0.1562E-83  0.2458E-82
 -24.260  0.1562E-83  0.2459E-82
 -24.250  0.1562E-83  0.2461E-82
 -24.240  0.1562E-83  0.2463E-82
 -24.230  0.1562E-83  0.2464E-82
 -24.220  0.1562E-83  0.2466E-82
 -24.210  0.1562E-83  0.2467E-82
 -24.200  0.1562E-83  0.2469E-82
 -24.190  0.1562E-83  0.2470E-82
 -24.180  0.1562E-83  0.2472E-82
 -24.170  0.1562E-83  0.2474E-82
 -24.160  0.1562E-83  0.2475E-82
 -24.150  0.1562E-83  0.2477E-82
 -24.140  0.1562E-83  0.2478E-82
 -24.130  0.1562E-83  0.2480E-82
 -24.120  0.1562E-83  0.2481E-82
 -24.110  0.1562E-83  0.2483E-82
 -24.100  0.1562E-83  0.2484E-82
 -24.090  0.1562E-83  0.2486E-82
 -24.080  0.1562E-83  0.2488E-82
 -24.070  0.1562E-83  0.2489E-82
 -24.060  0.1562E-83  0.2491E-82
 -24.050  0.1562E-83  0.2492E-82
 -24.040  0.1562E-83  0.2494E-82
 -24.030  0.1562E-83  0.2495E-82
 -24.020  0.1562E-83  0.2497E-82
 -24.010  0.1562E-83  0.2498E-82
 -24.000  0.1562E-83  0.2500E-82
 -23.990  0.1562E-83  0.2502E-82
 -23.980  0.1562E-83  0.2503E-82
 -23.970  0.1562E-83  0.2505E-82
 -23.960  0.1562E-83  0.2506E-82
 -23.950  0.1562E-83  0.2508E-82
 -23.940  0.1562E-83  0.2509E-82
 -23.930  0.1562E-83  0.2511E-82
 -23.920  0.1562E-83  0.2513E-82
 -23.910  0.1562E-83  0.2514E-82
 -23.900  0.1562E-83  0.2516E-82
 -23.890  0.1562E-83  0.2517E-82
 -23.880  0.1562E-83  0.2519E-82
 -23.870  0.1562E-83  0.2520E-82
 -23.860  0.1562E-83  0.2522E-82
 -23.850  0.1562E-83  0.2523E-82
 -23.840  0.1562E-83  0.2525E-82
 -23.830  0.1562E-83  0.2527E-82
 -23.820  0.1562E-83  0.2528E-82
 -23.810  0.1562E-83  0.2530E-82
 -23.800  0.1562E-83  0.2531E-82
 -23.790  0.1562E-83  0.2533E-82
 -23.780  0.1562E-83  0.2534E-82
 -23.770  0.1562E-83  0.2536E-82
 -23.760  0.1562E-83  0.2538E-82
 -23.750  0.1562E-83  0.2539E-82
 -23.740  0.1562E-83  0.2541E-82
 -23.730  0.1562E-83  0.2542E-82
 -23.720  0.1562E-83  0.2544E-82
 -23.710  0.1562E-83  0.2545E-82
 -23.700  0.1562E-83  0.2547E-82
 -23.690  0.1562E-83  0.2548E-82
 -23.680  0.1562E-83  0.2550E-82
 -23.670  0.1562E-83  0.2552E-82
 -23.660  0.1562E-83  0.2553E-82
 -23.650  0.1562E-83  0.2555E-82
 -23.640  0.1562E-83  0.2556E-82
 -23.630  0.1562E-83  0.2558E-82
 -23.620  0.1562E-83  0.2559E-82
 -23.610  0.1562E-83  0.2561E-82
 -23.600  0.1562E-83  0.2563E-82
 -23.590  0.1562E-83  0.2564E-82
 -23.580  0.1562E-83  0.2566E-82
 -23.570  0.1562E-83  0.2567E-82
 -23.560  0.1562E-83  0.2569E-82
 -23.550  0.1562E-83  0.2570E-82
 -23.540  0.1562E-83  0.2572E-82
 -23.530  0.1562E-83  0.2573E-82
 -23.520  0.1562E-83  0.2575E-82
 -23.510  0.1562E-83  0.2577E-82
 -23.500  0.1562E-83  0.2578E-82
 -23.490  0.1562E-83  0.2580E-82
 -23.480  0.1562E-83  0.2581E-82
 -23.470  0.1562E-83  0.2583E-82
 -23.460  0.1562E-83  0.2584E-82
 -23.450  0.1562E-83  0.2586E-82
 -23.440  0.1562E-83  0.2588E-82
 -23.430  0.1562E-83  0.2589E-82
 -23.420  0.1562E-83  0.2591E-82
 -23.410  0.1562E-83  0.2592E-82
 -23.400  0.1562E-83  0.2594E-82
 -23.390  0.1562E-83  0.2595E-82
 -23.380  0.1562E-83  0.2597E-82
 -23.370  0.1562E-83  0.2598E-82
 -23.360  0.1562E-83  0.2600E-82
 -23.350  0.1562E-83  0.2602E-82
 -23.340  0.1562E-83  0.2603E-82
 -23.330  0.1562E-83  0.2605E-82
 -23.320  0.1562E-83  0.2606E-82
 -23.310  0.1562E-83  0.2608E-82
 -23.300  0.1562E-83  0.2609E-82
 -23.290  0.1562E-83  0.2611E-82
 -23.280  0.1562E-83  0.2612E-82
 -23.270  0.1562E-83  0.2614E-82
 -23.260  0.1562E-83  0.2616E-82
 -23.250  0.1562E-83  0.2617E-82
 -23.240  0.1562E-83  0.2619E-82
 -23.230  0.1562E-83  0.2620E-82
 -23.220  0.1562E-83  0.2622E-82
 -23.210  0.1562E-83  0.2623E-82
 -23.200  0.1562E-83  0.2625E-82
 -23.190  0.1562E-83  0.2627E-82
 -23.180  0.1562E-83  0.2628E-82
 -23.170  0.1562E-83  0.2630E-82
 -23.160  0.1562E-83  0.2631E-82
 -23.150  0.1562E-83  0.2633E-82
 -23.140  0.1562E-83  0.2634E-82
 -23.130  0.1562E-83  0.2636E-82
 -23.120  0.1562E-83  0.2637E-82
 -23.110  0.1562E-83  0.2639E-82
 -23.100  0.1562E-83  0.2641E-82
 -23.090  0.1562E-83  0.2642E-82
 -23.080  0.1562E-83  0.2644E-82
 -23.070  0.1562E-83  0.2645E-82
 -23.060  0.1562E-83  0.2647E-82
 -23.050  0.1562E-83  0.2648E-82
 -23.040  0.1562E-83  0.2650E-82
 -23.030  0.1562E-83  0.2652E-82
 -23.020  0.1562E-83  0.2653E-82
 -23.010  0.1562E-83  0.2655E-82
 -23.000  0.1562E-83  0.2656E-82
 -22.990  0.1562E-83  0.2658E-82
 -22.980  0.1562E-83  0.2659E-82
 -22.970  0.1562E-83  0.2661E-82
 -22.960  0.1562E-83  0.2662E-82
 -22.950  0.1562E-83  0.2664E-82
 -22.940  0.1562E-83  0.2666E-82
 -22.930  0.1562E-83  0.2667E-82
 -22.920  0.1562E-83  0.2669E-82
 -22.910  0.1562E-83  0.2670E-82
 -22.900  0.1562E-83  0.2672E-82
 -22.890  0.1562E-83  0.2673E-82
 -22.880  0.1562E-83  0.2675E-82
 -22.870  0.1562E-83  0.2677E-82
 -22.860  0.1562E-83  0.2678E-82
 -22.850  0.1562E-83  0.2680E-82
 -22.840  0.1562E-83  0.2681E-82
 -22.830  0.1562E-83  0.2683E-82
 -22.820  0.1562E-83  0.2684E-82
 -22.810  0.1562E-83  0.2686E-82
 -22.800  0.1562E-83  0.2687E-82
 -22.790  0.1562E-83  0.2689E-82
 -22.780  0.1562E-83  0.2691E-82
 -22.770  0.1562E-83  0.2692E-82
 -22.760  0.1562E-83  0.2694E-82
 -22.750  0.1562E-83  0.2695E-82
 -22.740  0.1562E-83  0.2697E-82
 -22.730  0.1562E-83  0.2698E-82
 -22.720  0.1562E-83  0.2700E-82
 -22.710  0.1562E-83  0.2701E-82
 -22.700  0.1562E-83  0.2703E-82
 -22.690  0.1562E-83  0.2705E-82
 -22.680  0.1562E-83  0.2706E-82
 -22.670  0.1562E-83  0.2708E-82
 -22.660  0.1562E-83  0.2709E-82
 -22.650  0.1562E-83  0.2711E-82
 -22.640  0.1562E-83  0.2712E-82
 -22.630  0.1562E-83  0.2714E-82
 -22.620  0.1562E-83  0.2716E-82
 -22.610  0.1562E-83  0.2717E-82
 -22.600  0.1562E-83  0.2719E-82
 -22.590  0.1562E-83  0.2720E-82
 -22.580  0.1562E-83  0.2722E-82
 -22.570  0.1562E-83  0.2723E-82
 -22.560  0.1562E-83  0.2725E-82
 -22.550  0.1562E-83  0.2726E-82
 -22.540  0.1562E-83  0.2728E-82
 -22.530  0.1562E-83  0.2730E-82
 -22.520  0.1562E-83  0.2731E-82
 -22.510  0.1562E-83  0.2733E-82
 -22.500  0.1562E-83  0.2734E-82
 -22.490  0.1562E-83  0.2736E-82
 -22.480  0.1562E-83  0.2737E-82
 -22.470  0.1562E-83  0.2739E-82
 -22.460  0.1562E-83  0.2741E-82
 -22.450  0.1562E-83  0.2742E-82
 -22.440  0.1562E-83  0.2744E-82
 -22.430  0.1562E-83  0.2745E-82
 -22.420  0.1562E-83  0.2747E-82
 -22.410  0.1562E-83  0.2748E-82
 -22.400  0.1562E-83  0.2750E-82
 -22.390  0.1562E-83  0.2751E-82
 -22.380  0.1562E-83  0.2753E-82
 -22.370  0.1562E-83  0.2755E-82
 -22.360  0.1562E-83  0.2756E-82
 -22.350  0.1562E-83  0.2758E-82
 -22.340  0.1562E-83  0.2759E-82
 -22.330  0.1562E-83  0.2761E-82
 -22.320  0.1562E-83  0.2762E-82
 -22.310  0.1562E-83  0.2764E-82
 -22.300  0.1562E-83  0.2766E-82
 -22.290  0.1562E-83  0.2767E-82
 -22.280  0.1562E-83  0.2769E-82
 -22.270  0.1562E-83  0.2770E-82
 -22.260  0.1562E-83  0.2772E-82
 -22.250  0.1562E-83  0.2773E-82
 -22.240  0.1562E-83  0.2775E-82
 -22.230  0.1562E-83  0.2776E-82
 -22.220  0.1562E-83  0.2778E-82
 -22.210  0.1562E-83  0.2780E-82
 -22.200  0.1562E-83  0.2781E-82
 -22.190  0.1562E-83  0.2783E-82
 -22.180  0.1562E-83  0.2784E-82
 -22.170  0.1562E-83  0.2786E-82
 -22.160  0.1562E-83  0.2787E-82
 -22.150  0.1562E-83  0.2789E-82
 -22.140  0.1562E-83  0.2791E-82
 -22.130  0.1562E-83  0.2792E-82
 -22.120  0.1562E-83  0.2794E-82
 -22.110  0.1562E-83  0.2795E-82
 -22.100  0.1562E-83  0.2797E-82
 -22.090  0.1562E-83  0.2798E-82
 -22.080  0.1562E-83  0.2800E-82
 -22.070  0.1562E-83  0.2801E-82
 -22.060  0.1562E-83  0.2803E-82
 -22.050  0.1562E-83  0.2805E-82
 -22.040  0.1562E-83  0.2806E-82
 -22.030  0.1562E-83  0.2808E-82
 -22.020  0.1562E-83  0.2809E-82
 -22.010  0.1562E-83  0.2811E-82
 -22.000  0.1562E-83  0.2812E-82
 -21.990  0.1562E-83  0.2814E-82
 -21.980  0.1562E-83  0.2815E-82
 -21.970  0.1562E-83  0.2817E-82
 -21.960  0.1562E-83  0.2819E-82
 -21.950  0.1562E-83  0.2820E-82
 -21.940  0.1562E-83  0.2822E-82
 -21.930  0.1562E-83  0.2823E-82
 -21.920  0.1562E-83  0.2825E-82
 -21.910  0.1562E-83  0.2826E-82
 -21.900  0.1562E-83  0.2828E-82
 -21.890  0.1562E-83  0.2830E-82
 -21.880  0.1562E-83  0.2831E-82
 -21.870  0.1562E-83  0.2833E-82
 -21.860  0.1562E-83  0.2834E-82
 -21.850  0.1562E-83  0.2836E-82
 -21.840  0.1562E-83  0.2837E-82
 -21.830  0.1562E-83  0.2839E-82
 -21.820  0.1562E-83  0.2840E-82
 -21.810  0.1562E-83  0.2842E-82
 -21.800  0.1562E-83  0.2844E-82
 -21.790  0.1562E-83  0.2845E-82
 -21.780  0.1562E-83  0.2847E-82
 -21.770  0.1562E-83  0.2848E-82
 -21.760  0.1562E-83  0.2850E-82
 -21.750  0.1562E-83  0.2851E-82
 -21.740  0.1562E-83  0.2853E-82
 -21.730  0.1562E-83  0.2855E-82
 -21.720  0.1562E-83  0.2856E-82
 -21.710  0.1562E-83  0.2858E-82
 -21.700  0.1562E-83  0.2859E-82
 -21.690  0.1562E-83  0.2861E-82
 -21.680  0.1562E-83  0.2862E-82
 -21.670  0.1562E-83  0.2864E-82
 -21.660  0.1562E-83  0.2865E-82
 -21.650  0.1562E-83  0.2867E-82
 -21.640  0.1562E-83  0.2869E-82
 -21.630  0.1562E-83  0.2870E-82
 -21.620  0.1562E-83  0.2872E-82
 -21.610  0.1562E-83  0.2873E-82
 -21.600  0.1562E-83  0.2875E-82
 -21.590  0.1562E-83  0.2876E-82
 -21.580  0.1562E-83  0.2878E-82
 -21.570  0.1562E-83  0.2880E-82
 -21.560  0.1562E-83  0.2881E-82
 -21.550  0.1562E-83  0.2883E-82
 -21.540  0.1562E-83  0.2884E-82
 -21.530  0.1562E-83  0.2886E-82
 -21.520  0.1562E-83  0.2887E-82
 -21.510  0.1562E-83  0.2889E-82
 -21.500  0.1562E-83  0.2890E-82
 -21.490  0.1562E-83  0.2892E-82
 -21.480  0.1562E-83  0.2894E-82
 -21.470  0.1562E-83  0.2895E-82
 -21.460  0.1562E-83  0.2897E-82
 -21.450  0.1562E-83  0.2898E-82
 -21.440  0.1562E-83  0.2900E-82
 -21.430  0.1562E-83  0.2901E-82
 -21.420  0.1562E-83  0.2903E-82
 -21.410  0.1562E-83  0.2905E-82
 -21.400  0.1562E-83  0.2906E-82
 -21.390  0.1562E-83  0.2908E-82
 -21.380  0.1562E-83  0.2909E-82
 -21.370  0.1562E-83  0.2911E-82
 -21.360  0.1562E-83  0.2912E-82
 -21.350  0.1562E-83  0.2914E-82
 -21.340  0.1562E-83  0.2915E-82
 -21.330  0.1562E-83  0.2917E-82
 -21.320  0.1562E-83  0.2919E-82
 -21.310  0.1562E-83  0.2920E-82
 -21.300  0.1562E-83  0.2922E-82
 -21.290  0.1562E-83  0.2923E-82
 -21.280  0.1562E-83  0.2925E-82
 -21.270  0.1562E-83  0.2926E-82
 -21.260  0.1562E-83  0.2928E-82
 -21.250  0.1562E-83  0.2929E-82
 -21.240  0.1562E-83  0.2931E-82
 -21.230  0.1562E-83  0.2933E-82
 -21.220  0.1562E-83  0.2934E-82
 -21.210  0.1562E-83  0.2936E-82
 -21.200  0.1562E-83  0.2937E-82
 -21.190  0.1562E-83  0.2939E-82
 -21.180  0.1562E-83  0.2940E-82
 -21.170  0.1562E-83  0.2942E-82
 -21.160  0.1562E-83  0.2944E-82
 -21.150  0.1562E-83  0.2945E-82
 -21.140  0.1562E-83  0.2947E-82
 -21.130  0.1562E-83  0.2948E-82
 -21.120  0.1562E-83  0.2950E-82
 -21.110  0.1562E-83  0.2951E-82
 -21.100  0.1562E-83  0.2953E-82
 -21.090  0.1562E-83  0.2954E-82
 -21.080  0.1562E-83  0.2956E-82
 -21.070  0.1562E-83  0.2958E-82
 -21.060  0.1562E-83  0.2959E-82
 -21.050  0.1562E-83  0.2961E-82
 -21.040  0.1562E-83  0.2962E-82
 -21.030  0.1562E-83  0.2964E-82
 -21.020  0.1562E-83  0.2965E-82
 -21.010  0.1562E-83  0.2967E-82
 -21.000  0.1562E-83  0.2969E-82
 -20.990  0.1562E-83  0.2970E-82
 -20.980  0.1562E-83  0.2972E-82
 -20.970  0.1562E-83  0.2973E-82
 -20.960  0.1562E-83  0.2975E-82
 -20.950  0.1562E-83  0.2976E-82
 -20.940  0.1562E-83  0.2978E-82
 -20.930  0.1562E-83  0.2979E-82
 -20.920  0.1562E-83  0.2981E-82
 -20.910  0.1562E-83  0.2983E-82
 -20.900  0.1562E-83  0.2984E-82
 -20.890  0.1562E-83  0.2986E-82
 -20.880  0.1562E-83  0.2987E-82
 -20.870  0.1562E-83  0.2989E-82
 -20.860  0.1562E-83  0.2990E-82
 -20.850  0.1562E-83  0.2992E-82
 -20.840  0.1562E-83  0.2994E-82
 -20.830  0.1562E-83  0.2995E-82
 -20.820  0.1562E-83  0.2997E-82
 -20.810  0.1562E-83  0.2998E-82
 -20.800  0.1562E-83  0.3000E-82
 -20.790  0.1562E-83  0.3001E-82
 -20.780  0.1562E-83  0.3003E-82
 -20.770  0.1562E-83  0.3004E-82
 -20.760  0.1562E-83  0.3006E-82
 -20.750  0.1562E-83  0.3008E-82
 -20.740  0.1562E-83  0.3009E-82
 -20.730  0.1562E-83  0.3011E-82
 -20.720  0.1562E-83  0.3012E-82
 -20.710  0.1562E-83  0.3014E-82
 -20.700  0.1562E-83  0.3015E-82
 -20.690  0.1562E-83  0.3017E-82
 -20.680  0.1562E-83  0.3018E-82
 -20.670  0.1562E-83  0.3020E-82
 -20.660  0.1562E-83  0.3022E-82
 -20.650  0.1562E-83  0.3023E-82
 -20.640  0.1562E-83  0.3025E-82
 -20.630  0.1562E-83  0.3026E-82
 -20.620  0.1562E-83  0.3028E-82
 -20.610  0.1562E-83  0.3029E-82
 -20.600  0.1562E-83  0.3031E-82
 -20.590  0.1562E-83  0.3033E-82
 -20.580  0.1562E-83  0.3034E-82
 -20.570  0.1562E-83  0.3036E-82
 -20.560  0.1562E-83  0.3037E-82
 -20.550  0.1562E-83  0.3039E-82
 -20.540  0.1562E-83  0.3040E-82
 -20.530  0.1562E-83  0.3042E-82
 -20.520  0.1562E-83  0.3043E-82
 -20.510  0.1562E-83  0.3045E-82
 -20.500  0.1562E-83  0.3047E-82
 -20.490  0.1562E-83  0.3048E-82
 -20.480  0.1562E-83  0.3050E-82
 -20.470  0.1562E-83  0.3051E-82
 -20.460  0.1562E-83  0.3053E-82
 -20.450  0.1562E-83  0.3054E-82
 -20.440  0.1562E-83  0.3056E-82
 -20.430  0.1562E-83  0.3058E-82
 -20.420  0.1562E-83  0.3059E-82
 -20.410  0.1562E-83  0.3061E-82
 -20.400  0.1562E-83  0.3062E-82
 -20.390  0.1562E-83  0.3064E-82
 -20.380  0.1562E-83  0.3065E-82
 -20.370  0.1562E-83  0.3067E-82
 -20.360  0.1562E-83  0.3068E-82
 -20.350  0.1562E-83  0.3070E-82
 -20.340  0.1562E-83  0.3072E-82
 -20.330  0.1562E-83  0.3073E-82
 -20.320  0.1562E-83  0.3075E-82
 -20.310  0.1562E-83  0.3076E-82
 -20.300  0.1562E-83  0.3078E-82
 -20.290  0.1562E-83  0.3079E-82
 -20.280  0.1562E-83  0.3081E-82
 -20.270  0.1562E-83  0.3083E-82
 -20.260  0.1562E-83  0.3084E-82
 -20.250  0.1562E-83  0.3086E-82
 -20.240  0.1562E-83  0.3087E-82
 -20.230  0.1562E-83  0.3089E-82
 -20.220  0.1562E-83  0.3090E-82
 -20.210  0.1562E-83  0.3092E-82
 -20.200  0.1562E-83  0.3093E-82
 -20.190  0.1562E-83  0.3095E-82
 -20.180  0.1562E-83  0.3097E-82
 -20.170  0.1562E-83  0.3098E-82
 -20.160  0.1562E-83  0.3100E-82
 -20.150  0.1562E-83  0.3101E-82
 -20.140  0.1562E-83  0.3103E-82
 -20.130  0.1562E-83  0.3104E-82
 -20.120  0.1562E-83  0.3106E-82
 -20.110  0.1562E-83  0.3108E-82
 -20.100  0.1562E-83  0.3109E-82
 -20.090  0.1562E-83  0.3111E-82
 -20.080  0.1562E-83  0.3112E-82
 -20.070  0.1562E-83  0.3114E-82
 -20.060  0.1562E-83  0.3115E-82
 -20.050  0.1562E-83  0.3117E-82
 -20.040  0.1562E-83  0.3118E-82
 -20.030  0.1562E-83  0.3120E-82
 -20.020  0.1562E-83  0.3122E-82
 -20.010  0.1562E-83  0.3123E-82
 -20.000  0.1562E-83  0.3125E-82
 -19.990  0.1562E-83  0.3126E-82
 -19.980  0.1562E-83  0.3128E-82
 -19.970  0.1562E-83  0.3129E-82
 -19.960  0.1562E-83  0.3131E-82
 -19.950  0.1562E-83  0.3132E-82
 -19.940  0.1562E-83  0.3134E-82
 -19.930  0.1562E-83  0.3136E-82
 -19.920  0.1562E-83  0.3137E-82
 -19.910  0.1562E-83  0.3139E-82
 -19.900  0.1562E-83  0.3140E-82
 -19.890  0.1562E-83  0.3142E-82
 -19.880  0.1562E-83  0.3143E-82
 -19.870  0.1562E-83  0.3145E-82
 -19.860  0.1562E-83  0.3147E-82
 -19.850  0.1562E-83  0.3148E-82
 -19.840  0.1562E-83  0.3150E-82
 -19.830  0.1562E-83  0.3151E-82
 -19.820  0.1562E-83  0.3153E-82
 -19.810  0.1562E-83  0.3154E-82
 -19.800  0.1562E-83  0.3156E-82
 -19.790  0.1562E-83  0.3157E-82
 -19.780  0.1562E-83  0.3159E-82
 -19.770  0.1562E-83  0.3161E-82
 -19.760  0.1562E-83  0.3162E-82
 -19.750  0.1562E-83  0.3164E-82
 -19.740  0.1562E-83  0.3165E-82
 -19.730  0.1562E-83  0.3167E-82
 -19.720  0.1562E-83  0.3168E-82
 -19.710  0.1562E-83  0.3170E-82
 -19.700  0.1562E-83  0.3172E-82
 -19.690  0.1562E-83  0.3173E-82
 -19.680  0.1562E-83  0.3175E-82
 -19.670  0.1562E-83  0.3176E-82
 -19.660  0.1562E-83  0.3178E-82
 -19.650  0.1562E-83  0.3179E-82
 -19.640  0.1562E-83  0.3181E-82
 -19.630  0.1562E-83  0.3182E-82
 -19.620  0.1562E-83  0.3184E-82
 -19.610  0.1562E-83  0.3186E-82
 -19.600  0.1562E-83  0.3187E-82
 -19.590  0.1562E-83  0.3189E-82
 -19.580  0.1562E-83  0.3190E-82
 -19.570  0.1562E-83  0.3192E-82
 -19.560  0.1562E-83  0.3193E-82
 -19.550  0.1562E-83  0.3195E-82
 -19.540  0.1562E-83  0.3197E-82
 -19.530  0.1562E-83  0.3198E-82
 -19.520  0.1562E-83  0.3200E-82
 -19.510  0.1562E-83  0.3201E-82
 -19.500  0.1562E-83  0.3203E-82
 -19.490  0.1562E-83  0.3204E-82
 -19.480  0.1562E-83  0.3206E-82
 -19.470  0.1562E-83  0.3207E-82
 -19.460  0.1562E-83  0.3209E-82
 -19.450  0.1562E-83  0.3211E-82
 -19.440  0.1562E-83  0.3212E-82
 -19.430  0.1562E-83  0.3214E-82
 -19.420  0.1562E-83  0.3215E-82
 -19.410  0.1562E-83  0.3217E-82
 -19.400  0.1562E-83  0.3218E-82
 -19.390  0.1562E-83  0.3220E-82
 -19.380  0.1562E-83  0.3221E-82
 -19.370  0.1562E-83  0.3223E-82
 -19.360  0.1562E-83  0.3225E-82
 -19.350  0.1562E-83  0.3226E-82
 -19.340  0.1562E-83  0.3228E-82
 -19.330  0.1562E-83  0.3229E-82
 -19.320  0.1562E-83  0.3231E-82
 -19.310  0.1562E-83  0.3232E-82
 -19.300  0.1562E-83  0.3234E-82
 -19.290  0.1562E-83  0.3236E-82
 -19.280  0.1562E-83  0.3237E-82
 -19.270  0.1562E-83  0.3239E-82
 -19.260  0.1562E-83  0.3240E-82
 -19.250  0.1562E-83  0.3242E-82
 -19.240  0.1562E-83  0.3243E-82
 -19.230  0.1562E-83  0.3245E-82
 -19.220  0.1562E-83  0.3246E-82
 -19.210  0.1562E-83  0.3248E-82
 -19.200  0.1562E-83  0.3250E-82
 -19.190  0.1562E-83  0.3251E-82
 -19.180  0.1562E-83  0.3253E-82
 -19.170  0.1562E-83  0.3254E-82
 -19.160  0.1562E-83  0.3256E-82
 -19.150  0.1562E-83  0.3257E-82
 -19.140  0.1562E-83  0.3259E-82
 -19.130  0.1562E-83  0.3261E-82
 -19.120  0.1562E-83  0.3262E-82
 -19.110  0.1562E-83  0.3264E-82
 -19.100  0.1562E-83  0.3265E-82
 -19.090  0.1562E-83  0.3267E-82
 -19.080  0.1562E-83  0.3268E-82
 -19.070  0.1562E-83  0.3270E-82
 -19.060  0.1562E-83  0.3271E-82
 -19.050  0.1562E-83  0.3273E-82
 -19.040  0.1562E-83  0.3275E-82
 -19.030  0.1562E-83  0.3276E-82
 -19.020  0.1562E-83  0.3278E-82
 -19.010  0.1562E-83  0.3279E-82
 -19.000  0.1562E-83  0.3281E-82
 -18.990  0.1562E-83  0.3282E-82
 -18.980  0.1562E-83  0.3284E-82
 -18.970  0.1562E-83  0.3286E-82
 -18.960  0.1562E-83  0.3287E-82
 -18.950  0.1562E-83  0.3289E-82
 -18.940  0.1562E-83  0.3290E-82
 -18.930  0.1562E-83  0.3292E-82
 -18.920  0.1562E-83  0.3293E-82
 -18.910  0.1562E-83  0.3295E-82
 -18.900  0.1562E-83  0.3296E-82
 -18.890  0.1562E-83  0.3298E-82
 -18.880  0.1562E-83  0.3300E-82
 -18.870  0.1562E-83  0.3301E-82
 -18.860  0.1562E-83  0.3303E-82
 -18.850  0.1562E-83  0.3304E-82
 -18.840  0.1562E-83  0.3306E-82
 -18.830  0.1562E-83  0.3307E-82
 -18.820  0.1562E-83  0.3309E-82
 -18.810  0.1562E-83  0.3311E-82
 -18.800  0.1562E-83  0.3312E-82
 -18.790  0.1562E-83  0.3314E-82
 -18.780  0.1562E-83  0.3315E-82
 -18.770  0.1562E-83  0.3317E-82
 -18.760  0.1562E-83  0.3318E-82
 -18.750  0.1562E-83  0.3320E-82
 -18.740  0.1562E-83  0.3321E-82
 -18.730  0.1562E-83  0.3323E-82
 -18.720  0.1562E-83  0.3325E-82
 -18.710  0.1562E-83  0.3326E-82
 -18.700  0.1562E-83  0.3328E-82
 -18.690  0.1562E-83  0.3329E-82
 -18.680  0.1562E-83  0.3331E-82
 -18.670  0.1562E-83  0.3332E-82
 -18.660  0.1562E-83  0.3334E-82
 -18.650  0.1562E-83  0.3335E-82
 -18.640  0.1562E-83  0.3337E-82
 -18.630  0.1562E-83  0.3339E-82
 -18.620  0.1562E-83  0.3340E-82
 -18.610  0.1562E-83  0.3342E-82
 -18.600  0.1562E-83  0.3343E-82
 -18.590  0.1562E-83  0.3345E-82
 -18.580  0.1562E-83  0.3346E-82
 -18.570  0.1562E-83  0.3348E-82
 -18.560  0.1562E-83  0.3350E-82
 -18.550  0.1562E-83  0.3351E-82
 -18.540  0.1562E-83  0.3353E-82
 -18.530  0.1562E-83  0.3354E-82
 -18.520  0.1562E-83  0.3356E-82
 -18.510  0.1562E-83  0.3357E-82
 -18.500  0.1562E-83  0.3359E-82
 -18.490  0.1562E-83  0.3360E-82
 -18.480  0.1562E-83  0.3362E-82
 -18.470  0.1562E-83  0.3364E-82
 -18.460  0.1562E-83  0.3365E-82
 -18.450  0.1562E-83  0.3367E-82
 -18.440  0.1562E-83  0.3368E-82
 -18.430  0.1562E-83  0.3370E-82
 -18.420  0.1562E-83  0.3371E-82
 -18.410  0.1562E-83  0.3373E-82
 -18.400  0.1562E-83  0.3375E-82
 -18.390  0.1562E-83  0.3376E-82
 -18.380  0.1562E-83  0.3378E-82
 -18.370  0.1562E-83  0.3379E-82
 -18.360  0.1562E-83  0.3381E-82
 -18.350  0.1562E-83  0.3382E-82
 -18.340  0.1562E-83  0.3384E-82
 -18.330  0.1562E-83  0.3385E-82
 -18.320  0.1562E-83  0.3387E-82
 -18.310  0.1562E-83  0.3389E-82
 -18.300  0.1562E-83  0.3390E-82
 -18.290  0.1562E-83  0.3392E-82
 -18.280  0.1562E-83  0.3393E-82
 -18.270  0.1562E-83  0.3395E-82
 -18.260  0.1562E-83  0.3396E-82
 -18.250  0.1562E-83  0.3398E-82
 -18.240  0.1562E-83  0.3400E-82
 -18.230  0.1562E-83  0.3401E-82
 -18.220  0.1562E-83  0.3403E-82
 -18.210  0.1562E-83  0.3404E-82
 -18.200  0.1562E-83  0.3406E-82
 -18.190  0.1562E-83  0.3407E-82
 -18.180  0.1562E-83  0.3409E-82
 -18.170  0.1562E-83  0.3410E-82
 -18.160  0.1562E-83  0.3412E-82
 -18.150  0.1562E-83  0.3414E-82
 -18.140  0.1562E-83  0.3415E-82
 -18.130  0.1562E-83  0.3417E-82
 -18.120  0.1562E-83  0.3418E-82
 -18.110  0.1562E-83  0.3420E-82
 -18.100  0.1562E-83  0.3421E-82
 -18.090  0.1562E-83  0.3423E-82
 -18.080  0.1562E-83  0.3425E-82
 -18.070  0.1562E-83  0.3426E-82
 -18.060  0.1562E-83  0.3428E-82
 -18.050  0.1562E-83  0.3429E-82
 -18.040  0.1562E-83  0.3431E-82
 -18.030  0.1562E-83  0.3432E-82
 -18.020  0.1562E-83  0.3434E-82
 -18.010  0.1562E-83  0.3435E-82
 -18.000  0.1562E-83  0.3437E-82
 -17.990  0.1562E-83  0.3439E-82
 -17.980  0.1562E-83  0.3440E-82
 -17.970  0.1562E-83  0.3442E-82
 -17.960  0.1562E-83  0.3443E-82
 -17.950  0.1562E-83  0.3445E-82
 -17.940  0.1562E-83  0.3446E-82
 -17.930  0.1562E-83  0.3448E-82
 -17.920  0.1562E-83  0.3449E-82
 -17.910  0.1562E-83  0.3451E-82
 -17.900  0.1562E-83  0.3453E-82
 -17.890  0.1562E-83  0.3454E-82
 -17.880  0.1562E-83  0.3456E-82
 -17.870  0.1562E-83  0.3457E-82
 -17.860  0.1562E-83  0.3459E-82
 -17.850  0.1562E-83  0.3460E-82
 -17.840  0.1562E-83  0.3462E-82
 -17.830  0.1562E-83  0.3464E-82
 -17.820  0.1562E-83  0.3465E-82
 -17.810  0.1562E-83  0.3467E-82
 -17.800  0.1562E-83  0.3468E-82
 -17.790  0.1562E-83  0.3470E-82
 -17.780  0.1562E-83  0.3471E-82
 -17.770  0.1562E-83  0.3473E-82
 -17.760  0.1562E-83  0.3474E-82
 -17.750  0.1562E-83  0.3476E-82
 -17.740  0.1562E-83  0.3478E-82
 -17.730  0.1562E-83  0.3479E-82
 -17.720  0.1562E-83  0.3481E-82
 -17.710  0.1562E-83  0.3482E-82
 -17.700  0.1562E-83  0.3484E-82
 -17.690  0.1562E-83  0.3485E-82
 -17.680  0.1562E-83  0.3487E-82
 -17.670  0.1562E-83  0.3489E-82
 -17.660  0.1562E-83  0.3490E-82
 -17.650  0.1562E-83  0.3492E-82
 -17.640  0.1562E-83  0.3493E-82
 -17.630  0.1562E-83  0.3495E-82
 -17.620  0.1562E-83  0.3496E-82
 -17.610  0.1562E-83  0.3498E-82
 -17.600  0.1562E-83  0.3499E-82
 -17.590  0.1562E-83  0.3501E-82
 -17.580  0.1562E-83  0.3503E-82
 -17.570  0.1562E-83  0.3504E-82
 -17.560  0.1562E-83  0.3506E-82
 -17.550  0.1562E-83  0.3507E-82
 -17.540  0.1562E-83  0.3509E-82
 -17.530  0.1562E-83  0.3510E-82
 -17.520  0.1562E-83  0.3512E-82
 -17.510  0.1562E-83  0.3514E-82
 -17.500  0.1562E-83  0.3515E-82
 -17.490  0.1562E-83  0.3517E-82
 -17.480  0.1562E-83  0.3518E-82
 -17.470  0.1562E-83  0.3520E-82
 -17.460  0.1562E-83  0.3521E-82
 -17.450  0.1562E-83  0.3523E-82
 -17.440  0.1562E-83  0.3524E-82
 -17.430  0.1562E-83  0.3526E-82
 -17.420  0.1562E-83  0.3528E-82
 -17.410  0.1562E-83  0.3529E-82
 -17.400  0.1562E-83  0.3531E-82
 -17.390  0.1562E-83  0.3532E-82
 -17.380  0.1562E-83  0.3534E-82
 -17.370  0.1562E-83  0.3535E-82
 -17.360  0.1562E-83  0.3537E-82
 -17.350  0.1562E-83  0.3538E-82
 -17.340  0.1562E-83  0.3540E-82
 -17.330  0.1562E-83  0.3542E-82
 -17.320  0.1562E-83  0.3543E-82
 -17.310  0.1562E-83  0.3545E-82
 -17.300  0.1562E-83  0.3546E-82
 -17.290  0.1562E-83  0.3548E-82
 -17.280  0.1562E-83  0.3549E-82
 -17.270  0.1562E-83  0.3551E-82
 -17.260  0.1562E-83  0.3553E-82
 -17.250  0.1562E-83  0.3554E-82
 -17.240  0.1562E-83  0.3556E-82
 -17.230  0.1562E-83  0.3557E-82
 -17.220  0.1562E-83  0.3559E-82
 -17.210  0.1562E-83  0.3560E-82
 -17.200  0.1562E-83  0.3562E-82
 -17.190  0.1562E-83  0.3563E-82
 -17.180  0.1562E-83  0.3565E-82
 -17.170  0.1562E-83  0.3567E-82
 -17.160  0.1562E-83  0.3568E-82
 -17.150  0.1562E-83  0.3570E-82
 -17.140  0.1562E-83  0.3571E-82
 -17.130  0.1562E-83  0.3573E-82
 -17.120  0.1562E-83  0.3574E-82
 -17.110  0.1562E-83  0.3576E-82
 -17.100  0.1562E-83  0.3578E-82
 -17.090  0.1562E-83  0.3579E-82
 -17.080  0.1562E-83  0.3581E-82
 -17.070  0.1562E-83  0.3582E-82
 -17.060  0.1562E-83  0.3584E-82
 -17.050  0.1562E-83  0.3585E-82
 -17.040  0.1562E-83  0.3587E-82
 -17.030  0.1562E-83  0.3588E-82
 -17.020  0.1562E-83  0.3590E-82
 -17.010  0.1562E-83  0.3592E-82
 -17.000  0.1562E-83  0.3593E-82
 -16.990  0.1562E-83  0.3595E-82
 -16.980  0.1562E-83  0.3596E-82
 -16.970  0.1562E-83  0.3598E-82
 -16.960  0.1562E-83  0.3599E-82
 -16.950  0.1562E-83  0.3601E-82
 -16.940  0.1562E-83  0.3603E-82
 -16.930  0.1562E-83  0.3604E-82
 -16.920  0.1562E-83  0.3606E-82
 -16.910  0.1562E-83  0.3607E-82
 -16.900  0.1562E-83  0.3609E-82
 -16.890  0.1562E-83  0.3610E-82
 -16.880  0.1562E-83  0.3612E-82
 -16.870  0.1562E-83  0.3613E-82
 -16.860  0.1562E-83  0.3615E-82
 -16.850  0.1562E-83  0.3617E-82
 -16.840  0.1562E-83  0.3618E-82
 -16.830  0.1562E-83  0.3620E-82
 -16.820  0.1562E-83  0.3621E-82
 -16.810  0.1562E-83  0.3623E-82
 -16.800  0.1562E-83  0.3624E-82
 -16.790  0.1562E-83  0.3626E-82
 -16.780  0.1562E-83  0.3628E-82
 -16.770  0.1562E-83  0.3629E-82
 -16.760  0.1562E-83  0.3631E-82
 -16.750  0.1562E-83  0.3632E-82
 -16.740  0.1562E-83  0.3634E-82
 -16.730  0.1562E-83  0.3635E-82
 -16.720  0.1562E-83  0.3637E-82
 -16.710  0.1562E-83  0.3638E-82
 -16.700  0.1562E-83  0.3640E-82
 -16.690  0.1562E-83  0.3642E-82
 -16.680  0.1562E-83  0.3643E-82
 -16.670  0.1562E-83  0.3645E-82
 -16.660  0.1562E-83  0.3646E-82
 -16.650  0.1562E-83  0.3648E-82
 -16.640  0.1562E-83  0.3649E-82
 -16.630  0.1562E-83  0.3651E-82
 -16.620  0.1562E-83  0.3652E-82
 -16.610  0.1562E-83  0.3654E-82
 -16.600  0.1562E-83  0.3656E-82
 -16.590  0.1562E-83  0.3657E-82
 -16.580  0.1562E-83  0.3659E-82
 -16.570  0.1562E-83  0.3660E-82
 -16.560  0.1562E-83  0.3662E-82
 -16.550  0.1562E-83  0.3663E-82
 -16.540  0.1562E-83  0.3665E-82
 -16.530  0.1562E-83  0.3667E-82
 -16.520  0.1562E-83  0.3668E-82
 -16.510  0.1562E-83  0.3670E-82
 -16.500  0.1562E-83  0.3671E-82
 -16.490  0.1562E-83  0.3673E-82
 -16.480  0.1562E-83  0.3674E-82
 -16.470  0.1562E-83  0.3676E-82
 -16.460  0.1562E-83  0.3677E-82
 -16.450  0.1562E-83  0.3679E-82
 -16.440  0.1562E-83  0.3681E-82
 -16.430  0.1562E-83  0.3682E-82
 -16.420  0.1562E-83  0.3684E-82
 -16.410  0.1562E-83  0.3685E-82
 -16.400  0.1562E-83  0.3687E-82
 -16.390  0.1562E-83  0.3688E-82
 -16.380  0.1562E-83  0.3690E-82
 -16.370  0.1562E-83  0.3692E-82
 -16.360  0.1562E-83  0.3693E-82
 -16.350  0.1562E-83  0.3695E-82
 -16.340  0.1562E-83  0.3696E-82
 -16.330  0.1562E-83  0.3698E-82
 -16.320  0.1562E-83  0.3699E-82
 -16.310  0.1562E-83  0.3701E-82
 -16.300  0.1562E-83  0.3702E-82
 -16.290  0.1562E-83  0.3704E-82
 -16.280  0.1562E-83  0.3706E-82
 -16.270  0.1562E-83  0.3707E-82
 -16.260  0.1562E-83  0.3709E-82
 -16.250  0.1562E-83  0.3710E-82
 -16.240  0.1562E-83  0.3712E-82
 -16.230  0.1562E-83  0.3713E-82
 -16.220  0.1562E-83  0.3715E-82
 -16.210  0.1562E-83  0.3717E-82
 -16.200  0.1562E-83  0.3718E-82
 -16.190  0.1562E-83  0.3720E-82
 -16.180  0.1562E-83  0.3721E-82
 -16.170  0.1562E-83  0.3723E-82
 -16.160  0.1562E-83  0.3724E-82
 -16.150  0.1562E-83  0.3726E-82
 -16.140  0.1562E-83  0.3727E-82
 -16.130  0.1562E-83  0.3729E-82
 -16.120  0.1562E-83  0.3731E-82
 -16.110  0.1562E-83  0.3732E-82
 -16.100  0.1562E-83  0.3734E-82
 -16.090  0.1562E-83  0.3735E-82
 -16.080  0.1562E-83  0.3737E-82
 -16.070  0.1562E-83  0.3738E-82
 -16.060  0.1562E-83  0.3740E-82
 -16.050  0.1562E-83  0.3741E-82
 -16.040  0.1562E-83  0.3743E-82
 -16.030  0.1562E-83  0.3745E-82
 -16.020  0.1562E-83  0.3746E-82
 -16.010  0.1562E-83  0.3748E-82
 -16.000  0.1562E-83  0.3749E-82
 -15.990  0.1562E-83  0.3751E-82
 -15.980  0.1562E-83  0.3752E-82
 -15.970  0.1562E-83  0.3754E-82
 -15.960  0.1562E-83  0.3756E-82
 -15.950  0.1562E-83  0.3757E-82
 -15.940  0.1562E-83  0.3759E-82
 -15.930  0.1562E-83  0.3760E-82
 -15.920  0.1562E-83  0.3762E-82
 -15.910  0.1562E-83  0.3763E-82
 -15.900  0.1562E-83  0.3765E-82
 -15.890  0.1562E-83  0.3766E-82
 -15.880  0.1562E-83  0.3768E-82
 -15.870  0.1562E-83  0.3770E-82
 -15.860  0.1562E-83  0.3771E-82
 -15.850  0.1562E-83  0.3773E-82
 -15.840  0.1562E-83  0.3774E-82
 -15.830  0.1562E-83  0.3776E-82
 -15.820  0.1562E-83  0.3777E-82
 -15.810  0.1562E-83  0.3779E-82
 -15.800  0.1562E-83  0.3781E-82
 -15.790  0.1562E-83  0.3782E-82
 -15.780  0.1562E-83  0.3784E-82
 -15.770  0.1562E-83  0.3785E-82
 -15.760  0.1562E-83  0.3787E-82
 -15.750  0.1562E-83  0.3788E-82
 -15.740  0.1562E-83  0.3790E-82
 -15.730  0.1562E-83  0.3791E-82
 -15.720  0.1562E-83  0.3793E-82
 -15.710  0.1562E-83  0.3795E-82
 -15.700  0.1562E-83  0.3796E-82
 -15.690  0.1562E-83  0.3798E-82
 -15.680  0.1562E-83  0.3799E-82
 -15.670  0.1562E-83  0.3801E-82
 -15.660  0.1562E-83  0.3802E-82
 -15.650  0.1562E-83  0.3804E-82
 -15.640  0.1562E-83  0.3806E-82
 -15.630  0.1562E-83  0.3807E-82
 -15.620  0.1562E-83  0.3809E-82
 -15.610  0.1562E-83  0.3810E-82
 -15.600  0.1562E-83  0.3812E-82
 -15.590  0.1562E-83  0.3813E-82
 -15.580  0.1562E-83  0.3815E-82
 -15.570  0.1562E-83  0.3816E-82
 -15.560  0.1562E-83  0.3818E-82
 -15.550  0.1562E-83  0.3820E-82
 -15.540  0.1562E-83  0.3821E-82
 -15.530  0.1562E-83  0.3823E-82
 -15.520  0.1562E-83  0.3824E-82
 -15.510  0.1562E-83  0.3826E-82
 -15.500  0.1562E-83  0.3827E-82
 -15.490  0.1562E-83  0.3829E-82
 -15.480  0.1562E-83  0.3831E-82
 -15.470  0.1562E-83  0.3832E-82
 -15.460  0.1562E-83  0.3834E-82
 -15.450  0.1562E-83  0.3835E-82
 -15.440  0.1562E-83  0.3837E-82
 -15.430  0.1562E-83  0.3838E-82
 -15.420  0.1562E-83  0.3840E-82
 -15.410  0.1562E-83  0.3841E-82
 -15.400  0.1562E-83  0.3843E-82
 -15.390  0.1562E-83  0.3845E-82
 -15.380  0.1562E-83  0.3846E-82
 -15.370  0.1562E-83  0.3848E-82
 -15.360  0.1562E-83  0.3849E-82
 -15.350  0.1562E-83  0.3851E-82
 -15.340  0.1562E-83  0.3852E-82
 -15.330  0.1562E-83  0.3854E-82
 -15.320  0.1562E-83  0.3855E-82
 -15.310  0.1562E-83  0.3857E-82
 -15.300  0.1562E-83  0.3859E-82
 -15.290  0.1562E-83  0.3860E-82
 -15.280  0.1562E-83  0.3862E-82
 -15.270  0.1562E-83  0.3863E-82
 -15.260  0.1562E-83  0.3865E-82
 -15.250  0.1562E-83  0.3866E-82
 -15.240  0.1562E-83  0.3868E-82
 -15.230  0.1562E-83  0.3870E-82
 -15.220  0.1562E-83  0.3871E-82
 -15.210  0.1562E-83  0.3873E-82
 -15.200  0.1562E-83  0.3874E-82
 -15.190  0.1562E-83  0.3876E-82
 -15.180  0.1562E-83  0.3877E-82
 -15.170  0.1562E-83  0.3879E-82
 -15.160  0.1562E-83  0.3880E-82
 -15.150  0.1562E-83  0.3882E-82
 -15.140  0.1562E-83  0.3884E-82
 -15.130  0.1562E-83  0.3885E-82
 -15.120  0.1562E-83  0.3887E-82
 -15.110  0.1562E-83  0.3888E-82
 -15.100  0.1562E-83  0.3890E-82
 -15.090  0.1562E-83  0.3891E-82
 -15.080  0.1562E-83  0.3893E-82
 -15.070  0.1562E-83  0.3895E-82
 -15.060  0.1562E-83  0.3896E-82
 -15.050  0.1562E-83  0.3898E-82
 -15.040  0.1562E-83  0.3899E-82
 -15.030  0.1562E-83  0.3901E-82
 -15.020  0.1562E-83  0.3902E-82
 -15.010  0.1562E-83  0.3904E-82
 -15.000  0.1562E-83  0.3905E-82
 -14.990  0.1562E-83  0.3907E-82
 -14.980  0.1562E-83  0.3909E-82
 -14.970  0.1562E-83  0.3910E-82
 -14.960  0.1562E-83  0.3912E-82
 -14.950  0.1562E-83  0.3913E-82
 -14.940  0.1562E-83  0.3915E-82
 -14.930  0.1562E-83  0.3916E-82
 -14.920  0.1562E-83  0.3918E-82
 -14.910  0.1562E-83  0.3920E-82
 -14.900  0.1562E-83  0.3921E-82
 -14.890  0.1562E-83  0.3923E-82
 -14.880  0.1562E-83  0.3924E-82
 -14.870  0.1562E-83  0.3926E-82
 -14.860  0.1562E-83  0.3927E-82
 -14.850  0.1562E-83  0.3929E-82
 -14.840  0.1562E-83  0.3930E-82
 -14.830  0.1562E-83  0.3932E-82
 -14.820  0.1562E-83  0.3934E-82
 -14.810  0.1562E-83  0.3935E-82
 -14.800  0.1562E-83  0.3937E-82
 -14.790  0.1562E-83  0.3938E-82
 -14.780  0.1562E-83  0.3940E-82
 -14.770  0.1562E-83  0.3941E-82
 -14.760  0.1562E-83  0.3943E-82
 -14.750  0.1562E-83  0.3945E-82
 -14.740  0.1562E-83  0.3946E-82
 -14.730  0.1562E-83  0.3948E-82
 -14.720  0.1562E-83  0.3949E-82
 -14.710  0.1562E-83  0.3951E-82
 -14.700  0.1562E-83  0.3952E-82
 -14.690  0.1562E-83  0.3954E-82
 -14.680  0.1562E-83  0.3955E-82
 -14.670  0.1562E-83  0.3957E-82
 -14.660  0.1562E-83  0.3959E-82
 -14.650  0.1562E-83  0.3960E-82
 -14.640  0.1562E-83  0.3962E-82
 -14.630  0.1562E-83  0.3963E-82
 -14.620  0.1562E-83  0.3965E-82
 -14.610  0.1562E-83  0.3966E-82
 -14.600  0.1562E-83  0.3968E-82
 -14.590  0.1562E-83  0.3969E-82
 -14.580  0.1562E-83  0.3971E-82
 -14.570  0.1562E-83  0.3973E-82
 -14.560  0.1562E-83  0.3974E-82
 -14.550  0.1562E-83  0.3976E-82
 -14.540  0.1562E-83  0.3977E-82
 -14.530  0.1562E-83  0.3979E-82
 -14.520  0.1562E-83  0.3980E-82
 -14.510  0.1562E-83  0.3982E-82
 -14.500  0.1562E-83  0.3984E-82
 -14.490  0.1562E-83  0.3985E-82
 -14.480  0.1562E-83  0.3987E-82
 -14.470  0.1562E-83  0.3988E-82
 -14.460  0.1562E-83  0.3990E-82
 -14.450  0.1562E-83  0.3991E-82
 -14.440  0.1562E-83  0.3993E-82
 -14.430  0.1562E-83  0.3994E-82
 -14.420  0.1562E-83  0.3996E-82
 -14.410  0.1562E-83  0.3998E-82
 -14.400  0.1562E-83  0.3999E-82
 -14.390  0.1562E-83  0.4001E-82
 -14.380  0.1562E-83  0.4002E-82
 -14.370  0.1562E-83  0.4004E-82
 -14.360  0.1562E-83  0.4005E-82
 -14.350  0.1562E-83  0.4007E-82
 -14.340  0.1562E-83  0.4009E-82
 -14.330  0.1562E-83  0.4010E-82
 -14.320  0.1562E-83  0.4012E-82
 -14.310  0.1562E-83  0.4013E-82
 -14.300  0.1562E-83  0.4015E-82
 -14.290  0.1562E-83  0.4016E-82
 -14.280  0.1562E-83  0.4018E-82
 -14.270  0.1562E-83  0.4019E-82
 -14.260  0.1562E-83  0.4021E-82
 -14.250  0.1562E-83  0.4023E-82
 -14.240  0.1562E-83  0.4024E-82
 -14.230  0.1562E-83  0.4026E-82
 -14.220  0.1562E-83  0.4027E-82
 -14.210  0.1562E-83  0.4029E-82
 -14.200  0.1562E-83  0.4030E-82
 -14.190  0.1562E-83  0.4032E-82
 -14.180  0.1562E-83  0.4034E-82
 -14.170  0.1562E-83  0.4035E-82
 -14.160  0.1562E-83  0.4037E-82
 -14.150  0.1562E-83  0.4038E-82
 -14.140  0.1562E-83  0.4040E-82
 -14.130  0.1562E-83  0.4041E-82
 -14.120  0.1562E-83  0.4043E-82
 -14.110  0.1562E-83  0.4044E-82
 -14.100  0.1562E-83  0.4046E-82
 -14.090  0.1562E-83  0.4048E-82
 -14.080  0.1562E-83  0.4049E-82
 -14.070  0.1562E-83  0.4051E-82
 -14.060  0.1562E-83  0.4052E-82
 -14.050  0.1562E-83  0.4054E-82
 -14.040  0.1562E-83  0.4055E-82
 -14.030  0.1562E-83  0.4057E-82
 -14.020  0.1562E-83  0.4058E-82
 -14.010  0.1562E-83  0.4060E-82
 -14.000  0.1562E-83  0.4062E-82
 -13.990  0.1562E-83  0.4063E-82
 -13.980  0.1562E-83  0.4065E-82
 -13.970  0.1562E-83  0.4066E-82
 -13.960  0.1562E-83  0.4068E-82
 -13.950  0.1562E-83  0.4069E-82
 -13.940  0.1562E-83  0.4071E-82
 -13.930  0.1562E-83  0.4073E-82
 -13.920  0.1562E-83  0.4074E-82
 -13.910  0.1562E-83  0.4076E-82
 -13.900  0.1562E-83  0.4077E-82
 -13.890  0.1562E-83  0.4079E-82
 -13.880  0.1562E-83  0.4080E-82
 -13.870  0.1562E-83  0.4082E-82
 -13.860  0.1562E-83  0.4083E-82
 -13.850  0.1562E-83  0.4085E-82
 -13.840  0.1562E-83  0.4087E-82
 -13.830  0.1562E-83  0.4088E-82
 -13.820  0.1562E-83  0.4090E-82
 -13.810  0.1562E-83  0.4091E-82
 -13.800  0.1562E-83  0.4093E-82
 -13.790  0.1562E-83  0.4094E-82
 -13.780  0.1562E-83  0.4096E-82
 -13.770  0.1562E-83  0.4098E-82
 -13.760  0.1562E-83  0.4099E-82
 -13.750  0.1562E-83  0.4101E-82
 -13.740  0.1562E-83  0.4102E-82
 -13.730  0.1562E-83  0.4104E-82
 -13.720  0.1562E-83  0.4105E-82
 -13.710  0.1562E-83  0.4107E-82
 -13.700  0.1562E-83  0.4108E-82
 -13.690  0.1562E-83  0.4110E-82
 -13.680  0.1562E-83  0.4112E-82
 -13.670  0.1562E-83  0.4113E-82
 -13.660  0.1562E-83  0.4115E-82
 -13.650  0.1562E-83  0.4116E-82
 -13.640  0.1562E-83  0.4118E-82
 -13.630  0.1562E-83  0.4119E-82
 -13.620  0.1562E-83  0.4121E-82
 -13.610  0.1562E-83  0.4123E-82
 -13.600  0.1562E-83  0.4124E-82
 -13.590  0.1562E-83  0.4126E-82
 -13.580  0.1562E-83  0.4127E-82
 -13.570  0.1562E-83  0.4129E-82
 -13.560  0.1562E-83  0.4130E-82
 -13.550  0.1562E-83  0.4132E-82
 -13.540  0.1562E-83  0.4133E-82
 -13.530  0.1562E-83  0.4135E-82
 -13.520  0.1562E-83  0.4137E-82
 -13.510  0.1562E-83  0.4138E-82
 -13.500  0.1562E-83  0.4140E-82
 -13.490  0.1562E-83  0.4141E-82
 -13.480  0.1562E-83  0.4143E-82
 -13.470  0.1562E-83  0.4144E-82
 -13.460  0.1562E-83  0.4146E-82
 -13.450  0.1562E-83  0.4148E-82
 -13.440  0.1562E-83  0.4149E-82
 -13.430  0.1562E-83  0.4151E-82
 -13.420  0.1562E-83  0.4152E-82
 -13.410  0.1562E-83  0.4154E-82
 -13.400  0.1562E-83  0.4155E-82
 -13.390  0.1562E-83  0.4157E-82
 -13.380  0.1562E-83  0.4158E-82
 -13.370  0.1562E-83  0.4160E-82
 -13.360  0.1562E-83  0.4162E-82
 -13.350  0.1562E-83  0.4163E-82
 -13.340  0.1562E-83  0.4165E-82
 -13.330  0.1562E-83  0.4166E-82
 -13.320  0.1562E-83  0.4168E-82
 -13.310  0.1562E-83  0.4169E-82
 -13.300  0.1562E-83  0.4171E-82
 -13.290  0.1562E-83  0.4172E-82
 -13.280  0.1562E-83  0.4174E-82
 -13.270  0.1562E-83  0.4176E-82
 -13.260  0.1562E-83  0.4177E-82
 -13.250  0.1562E-83  0.4179E-82
 -13.240  0.1562E-83  0.4180E-82
 -13.230  0.1562E-83  0.4182E-82
 -13.220  0.1562E-83  0.4183E-82
 -13.210  0.1562E-83  0.4185E-82
 -13.200  0.1562E-83  0.4187E-82
 -13.190  0.1562E-83  0.4188E-82
 -13.180  0.1562E-83  0.4190E-82
 -13.170  0.1562E-83  0.4191E-82
 -13.160  0.1562E-83  0.4193E-82
 -13.150  0.1562E-83  0.4194E-82
 -13.140  0.1562E-83  0.4196E-82
 -13.130  0.1562E-83  0.4197E-82
 -13.120  0.1562E-83  0.4199E-82
 -13.110  0.1562E-83  0.4201E-82
 -13.100  0.1562E-83  0.4202E-82
 -13.090  0.1562E-83  0.4204E-82
 -13.080  0.1562E-83  0.4205E-82
 -13.070  0.1562E-83  0.4207E-82
 -13.060  0.1562E-83  0.4208E-82
 -13.050  0.1562E-83  0.4210E-82
 -13.040  0.1562E-83  0.4212E-82
 -13.030  0.1562E-83  0.4213E-82
 -13.020  0.1562E-83  0.4215E-82
 -13.010  0.1562E-83  0.4216E-82
 -13.000  0.1562E-83  0.4218E-82
 -12.990  0.1562E-83  0.4219E-82
 -12.980  0.1562E-83  0.4221E-82
 -12.970  0.1562E-83  0.4222E-82
 -12.960  0.1562E-83  0.4224E-82
 -12.950  0.1562E-83  0.4226E-82
 -12.940  0.1562E-83  0.4227E-82
 -12.930  0.1562E-83  0.4229E-82
 -12.920  0.1562E-83  0.4230E-82
 -12.910  0.1562E-83  0.4232E-82
 -12.900  0.1562E-83  0.4233E-82
 -12.890  0.1562E-83  0.4235E-82
 -12.880  0.1562E-83  0.4237E-82
 -12.870  0.1562E-83  0.4238E-82
 -12.860  0.1562E-83  0.4240E-82
 -12.850  0.1562E-83  0.4241E-82
 -12.840  0.1562E-83  0.4243E-82
 -12.830  0.1562E-83  0.4244E-82
 -12.820  0.1562E-83  0.4246E-82
 -12.810  0.1562E-83  0.4247E-82
 -12.800  0.1562E-83  0.4249E-82
 -12.790  0.1562E-83  0.4251E-82
 -12.780  0.1562E-83  0.4252E-82
 -12.770  0.1562E-83  0.4254E-82
 -12.760  0.1562E-83  0.4255E-82
 -12.750  0.1562E-83  0.4257E-82
 -12.740  0.1562E-83  0.4258E-82
 -12.730  0.1562E-83  0.4260E-82
 -12.720  0.1562E-83  0.4261E-82
 -12.710  0.1562E-83  0.4263E-82
 -12.700  0.1562E-83  0.4265E-82
 -12.690  0.1562E-83  0.4266E-82
 -12.680  0.1562E-83  0.4268E-82
 -12.670  0.1562E-83  0.4269E-82
 -12.660  0.1562E-83  0.4271E-82
 -12.650  0.1562E-83  0.4272E-82
 -12.640  0.1562E-83  0.4274E-82
 -12.630  0.1562E-83  0.4276E-82
 -12.620  0.1562E-83  0.4277E-82
 -12.610  0.1562E-83  0.4279E-82
 -12.600  0.1562E-83  0.4280E-82
 -12.590  0.1562E-83  0.4282E-82
 -12.580  0.1562E-83  0.4283E-82
 -12.570  0.1562E-83  0.4285E-82
 -12.560  0.1562E-83  0.4286E-82
 -12.550  0.1562E-83  0.4288E-82
 -12.540  0.1562E-83  0.4290E-82
 -12.530  0.1562E-83  0.4291E-82
 -12.520  0.1562E-83  0.4293E-82
 -12.510  0.1562E-83  0.4294E-82
 -12.500  0.1562E-83  0.4296E-82
 -12.490  0.1562E-83  0.4297E-82
 -12.480  0.1562E-83  0.4299E-82
 -12.470  0.1562E-83  0.4301E-82
 -12.460  0.1562E-83  0.4302E-82
 -12.450  0.1562E-83  0.4304E-82
 -12.440  0.1562E-83  0.4305E-82
 -12.430  0.1562E-83  0.4307E-82
 -12.420  0.1562E-83  0.4308E-82
 -12.410  0.1562E-83  0.4310E-82
 -12.400  0.1562E-83  0.4311E-82
 -12.390  0.1562E-83  0.4313E-82
 -12.380  0.1562E-83  0.4315E-82
 -12.370  0.1562E-83  0.4316E-82
 -12.360  0.1562E-83  0.4318E-82
 -12.350  0.1562E-83  0.4319E-82
 -12.340  0.1562E-83  0.4321E-82
 -12.330  0.1562E-83  0.4322E-82
 -12.320  0.1562E-83  0.4324E-82
 -12.310  0.1562E-83  0.4326E-82
 -12.300  0.1562E-83  0.4327E-82
 -12.290  0.1562E-83  0.4329E-82
 -12.280  0.1562E-83  0.4330E-82
 -12.270  0.1562E-83  0.4332E-82
 -12.260  0.1562E-83  0.4333E-82
 -12.250  0.1562E-83  0.4335E-82
 -12.240  0.1562E-83  0.4336E-82
 -12.230  0.1562E-83  0.4338E-82
 -12.220  0.1562E-83  0.4340E-82
 -12.210  0.1562E-83  0.4341E-82
 -12.200  0.1562E-83  0.4343E-82
 -12.190  0.1562E-83  0.4344E-82
 -12.180  0.1562E-83  0.4346E-82
 -12.170  0.1562E-83  0.4347E-82
 -12.160  0.1562E-83  0.4349E-82
 -12.150  0.1562E-83  0.4351E-82
 -12.140  0.1562E-83  0.4352E-82
 -12.130  0.1562E-83  0.4354E-82
 -12.120  0.1562E-83  0.4355E-82
 -12.110  0.1562E-83  0.4357E-82
 -12.100  0.1562E-83  0.4358E-82
 -12.090  0.1562E-83  0.4360E-82
 -12.080  0.1562E-83  0.4361E-82
 -12.070  0.1562E-83  0.4363E-82
 -12.060  0.1562E-83  0.4365E-82
 -12.050  0.1562E-83  0.4366E-82
 -12.040  0.1562E-83  0.4368E-82
 -12.030  0.1562E-83  0.4369E-82
 -12.020  0.1562E-83  0.4371E-82
 -12.010  0.1562E-83  0.4372E-82
 -12.000  0.1562E-83  0.4374E-82
 -11.990  0.1562E-83  0.4375E-82
 -11.980  0.1562E-83  0.4377E-82
 -11.970  0.1562E-83  0.4379E-82
 -11.960  0.1562E-83  0.4380E-82
 -11.950  0.1562E-83  0.4382E-82
 -11.940  0.1562E-83  0.4383E-82
 -11.930  0.1562E-83  0.4385E-82
 -11.920  0.1562E-83  0.4386E-82
 -11.910  0.1562E-83  0.4388E-82
 -11.900  0.1562E-83  0.4390E-82
 -11.890  0.1562E-83  0.4391E-82
 -11.880  0.1562E-83  0.4393E-82
 -11.870  0.1562E-83  0.4394E-82
 -11.860  0.1562E-83  0.4396E-82
 -11.850  0.1562E-83  0.4397E-82
 -11.840  0.1562E-83  0.4399E-82
 -11.830  0.1562E-83  0.4400E-82
 -11.820  0.1562E-83  0.4402E-82
 -11.810  0.1562E-83  0.4404E-82
 -11.800  0.1562E-83  0.4405E-82
 -11.790  0.1562E-83  0.4407E-82
 -11.780  0.1562E-83  0.4408E-82
 -11.770  0.1562E-83  0.4410E-82
 -11.760  0.1562E-83  0.4411E-82
 -11.750  0.1562E-83  0.4413E-82
 -11.740  0.1562E-83  0.4415E-82
 -11.730  0.1562E-83  0.4416E-82
 -11.720  0.1562E-83  0.4418E-82
 -11.710  0.1562E-83  0.4419E-82
 -11.700  0.1562E-83  0.4421E-82
 -11.690  0.1562E-83  0.4422E-82
 -11.680  0.1562E-83  0.4424E-82
 -11.670  0.1562E-83  0.4425E-82
 -11.660  0.1562E-83  0.4427E-82
 -11.650  0.1562E-83  0.4429E-82
 -11.640  0.1562E-83  0.4430E-82
 -11.630  0.1562E-83  0.4432E-82
 -11.620  0.1562E-83  0.4433E-82
 -11.610  0.1562E-83  0.4435E-82
 -11.600  0.1562E-83  0.4436E-82
 -11.590  0.1562E-83  0.4438E-82
 -11.580  0.1562E-83  0.4440E-82
 -11.570  0.1562E-83  0.4441E-82
 -11.560  0.1562E-83  0.4443E-82
 -11.550  0.1562E-83  0.4444E-82
 -11.540  0.1562E-83  0.4446E-82
 -11.530  0.1562E-83  0.4447E-82
 -11.520  0.1562E-83  0.4449E-82
 -11.510  0.1562E-83  0.4450E-82
 -11.500  0.1562E-83  0.4452E-82
 -11.490  0.1562E-83  0.4454E-82
 -11.480  0.1562E-83  0.4455E-82
 -11.470  0.1562E-83  0.4457E-82
 -11.460  0.1562E-83  0.4458E-82
 -11.450  0.1562E-83  0.4460E-82
 -11.440  0.1562E-83  0.4461E-82
 -11.430  0.1562E-83  0.4463E-82
 -11.420  0.1562E-83  0.4465E-82
 -11.410  0.1562E-83  0.4466E-82
 -11.400  0.1562E-83  0.4468E-82
 -11.390  0.1562E-83  0.4469E-82
 -11.380  0.1562E-83  0.4471E-82
 -11.370  0.1562E-83  0.4472E-82
 -11.360  0.1562E-83  0.4474E-82
 -11.350  0.1562E-83  0.4475E-82
 -11.340  0.1562E-83  0.4477E-82
 -11.330  0.1562E-83  0.4479E-82
 -11.320  0.1562E-83  0.4480E-82
 -11.310  0.1562E-83  0.4482E-82
 -11.300  0.1562E-83  0.4483E-82
 -11.290  0.1562E-83  0.4485E-82
 -11.280  0.1562E-83  0.4486E-82
 -11.270  0.1562E-83  0.4488E-82
 -11.260  0.1562E-83  0.4489E-82
 -11.250  0.1562E-83  0.4491E-82
 -11.240  0.1562E-83  0.4493E-82
 -11.230  0.1562E-83  0.4494E-82
 -11.220  0.1562E-83  0.4496E-82
 -11.210  0.1562E-83  0.4497E-82
 -11.200  0.1562E-83  0.4499E-82
 -11.190  0.1562E-83  0.4500E-82
 -11.180  0.1562E-83  0.4502E-82
 -11.170  0.1562E-83  0.4504E-82
 -11.160  0.1562E-83  0.4505E-82
 -11.150  0.1562E-83  0.4507E-82
 -11.140  0.1562E-83  0.4508E-82
 -11.130  0.1562E-83  0.4510E-82
 -11.120  0.1562E-83  0.4511E-82
 -11.110  0.1562E-83  0.4513E-82
 -11.100  0.1562E-83  0.4514E-82
 -11.090  0.1562E-83  0.4516E-82
 -11.080  0.1562E-83  0.4518E-82
 -11.070  0.1562E-83  0.4519E-82
 -11.060  0.1562E-83  0.4521E-82
 -11.050  0.1562E-83  0.4522E-82
 -11.040  0.1562E-83  0.4524E-82
 -11.030  0.1562E-83  0.4525E-82
 -11.020  0.1562E-83  0.4527E-82
 -11.010  0.1562E-83  0.4529E-82
 -11.000  0.1562E-83  0.4530E-82
 -10.990  0.1562E-83  0.4532E-82
 -10.980  0.1562E-83  0.4533E-82
 -10.970  0.1562E-83  0.4535E-82
 -10.960  0.1562E-83  0.4536E-82
 -10.950  0.1562E-83  0.4538E-82
 -10.940  0.1562E-83  0.4539E-82
 -10.930  0.1562E-83  0.4541E-82
 -10.920  0.1562E-83  0.4543E-82
 -10.910  0.1562E-83  0.4544E-82
 -10.900  0.1562E-83  0.4546E-82
 -10.890  0.1562E-83  0.4547E-82
 -10.880  0.1562E-83  0.4549E-82
 -10.870  0.1562E-83  0.4550E-82
 -10.860  0.1562E-83  0.4552E-82
 -10.850  0.1562E-83  0.4554E-82
 -10.840  0.1562E-83  0.4555E-82
 -10.830  0.1562E-83  0.4557E-82
 -10.820  0.1562E-83  0.4558E-82
 -10.810  0.1562E-83  0.4560E-82
 -10.800  0.1562E-83  0.4561E-82
 -10.790  0.1562E-83  0.4563E-82
 -10.780  0.1562E-83  0.4564E-82
 -10.770  0.1562E-83  0.4566E-82
 -10.760  0.1562E-83  0.4568E-82
 -10.750  0.1562E-83  0.4569E-82
 -10.740  0.1562E-83  0.4571E-82
 -10.730  0.1562E-83  0.4572E-82
 -10.720  0.1562E-83  0.4574E-82
 -10.710  0.1562E-83  0.4575E-82
 -10.700  0.1562E-83  0.4577E-82
 -10.690  0.1562E-83  0.4578E-82
 -10.680  0.1562E-83  0.4580E-82
 -10.670  0.1562E-83  0.4582E-82
 -10.660  0.1562E-83  0.4583E-82
 -10.650  0.1562E-83  0.4585E-82
 -10.640  0.1562E-83  0.4586E-82
 -10.630  0.1562E-83  0.4588E-82
 -10.620  0.1562E-83  0.4589E-82
 -10.610  0.1562E-83  0.4591E-82
 -10.600  0.1562E-83  0.4593E-82
 -10.590  0.1562E-83  0.4594E-82
 -10.580  0.1562E-83  0.4596E-82
 -10.570  0.1562E-83  0.4597E-82
 -10.560  0.1562E-83  0.4599E-82
 -10.550  0.1562E-83  0.4600E-82
 -10.540  0.1562E-83  0.4602E-82
 -10.530  0.1562E-83  0.4603E-82
 -10.520  0.1562E-83  0.4605E-82
 -10.510  0.1562E-83  0.4607E-82
 -10.500  0.1562E-83  0.4608E-82
 -10.490  0.1562E-83  0.4610E-82
 -10.480  0.1562E-83  0.4611E-82
 -10.470  0.1562E-83  0.4613E-82
 -10.460  0.1562E-83  0.4614E-82
 -10.450  0.1562E-83  0.4616E-82
 -10.440  0.1562E-83  0.4618E-82
 -10.430  0.1562E-83  0.4619E-82
 -10.420  0.1562E-83  0.4621E-82
 -10.410  0.1562E-83  0.4622E-82
 -10.400  0.1562E-83  0.4624E-82
 -10.390  0.1562E-83  0.4625E-82
 -10.380  0.1562E-83  0.4627E-82
 -10.370  0.1562E-83  0.4628E-82
 -10.360  0.1562E-83  0.4630E-82
 -10.350  0.1562E-83  0.4632E-82
 -10.340  0.1562E-83  0.4633E-82
 -10.330  0.1562E-83  0.4635E-82
 -10.320  0.1562E-83  0.4636E-82
 -10.310  0.1562E-83  0.4638E-82
 -10.300  0.1562E-83  0.4639E-82
 -10.290  0.1562E-83  0.4641E-82
 -10.280  0.1562E-83  0.4643E-82
 -10.270  0.1562E-83  0.4644E-82
 -10.260  0.1562E-83  0.4646E-82
 -10.250  0.1562E-83  0.4647E-82
 -10.240  0.1562E-83  0.4649E-82
 -10.230  0.1562E-83  0.4650E-82
 -10.220  0.1562E-83  0.4652E-82
 -10.210  0.1562E-83  0.4653E-82
 -10.200  0.1562E-83  0.4655E-82
 -10.190  0.1562E-83  0.4657E-82
 -10.180  0.1562E-83  0.4658E-82
 -10.170  0.1562E-83  0.4660E-82
 -10.160  0.1562E-83  0.4661E-82
 -10.150  0.1562E-83  0.4663E-82
 -10.140  0.1562E-83  0.4664E-82
 -10.130  0.1562E-83  0.4666E-82
 -10.120  0.1562E-83  0.4668E-82
 -10.110  0.1562E-83  0.4669E-82
 -10.100  0.1562E-83  0.4671E-82
 -10.090  0.1562E-83  0.4672E-82
 -10.080  0.1562E-83  0.4674E-82
 -10.070  0.1562E-83  0.4675E-82
 -10.060  0.1562E-83  0.4677E-82
 -10.050  0.1562E-83  0.4678E-82
 -10.040  0.1562E-83  0.4680E-82
 -10.030  0.1562E-83  0.4682E-82
 -10.020  0.1562E-83  0.4683E-82
 -10.010  0.1562E-83  0.4685E-82
 -10.000  0.1562E-83  0.4686E-82
  -9.990  0.1562E-83  0.4688E-82
  -9.980  0.1562E-83  0.4689E-82
  -9.970  0.1562E-83  0.4691E-82
  -9.960  0.1562E-83  0.4692E-82
  -9.950  0.1562E-83  0.4694E-82
  -9.940  0.1562E-83  0.4696E-82
  -9.930  0.1562E-83  0.4697E-82
  -9.920  0.1562E-83  0.4699E-82
  -9.910  0.1562E-83  0.4700E-82
  -9.900  0.1562E-83  0.4702E-82
  -9.890  0.1562E-83  0.4703E-82
  -9.880  0.1562E-83  0.4705E-82
  -9.870  0.1562E-83  0.4707E-82
  -9.860  0.1562E-83  0.4708E-82
  -9.850  0.1562E-83  0.4710E-82
  -9.840  0.1562E-83  0.4711E-82
  -9.830  0.1562E-83  0.4713E-82
  -9.820  0.1562E-83  0.4714E-82
  -9.810  0.1562E-83  0.4716E-82
  -9.800  0.1562E-83  0.4717E-82
  -9.790  0.1562E-83  0.4719E-82
  -9.780  0.1562E-83  0.4721E-82
  -9.770  0.1562E-83  0.4722E-82
  -9.760  0.1562E-83  0.4724E-82
  -9.750  0.1562E-83  0.4725E-82
  -9.740  0.1562E-83  0.4727E-82
  -9.730  0.1562E-83  0.4728E-82
  -9.720  0.1562E-83  0.4730E-82
  -9.710  0.1562E-83  0.4732E-82
  -9.700  0.1562E-83  0.4733E-82
  -9.690  0.1562E-83  0.4735E-82
  -9.680  0.1562E-83  0.4736E-82
  -9.670  0.1562E-83  0.4738E-82
  -9.660  0.1562E-83  0.4739E-82
  -9.650  0.1562E-83  0.4741E-82
  -9.640  0.1562E-83  0.4742E-82
  -9.630  0.1562E-83  0.4744E-82
  -9.620  0.1562E-83  0.4746E-82
  -9.610  0.1562E-83  0.4747E-82
  -9.600  0.1562E-83  0.4749E-82
  -9.590  0.1562E-83  0.4750E-82
  -9.580  0.1562E-83  0.4752E-82
  -9.570  0.1562E-83  0.4753E-82
  -9.560  0.1562E-83  0.4755E-82
  -9.550  0.1562E-83  0.4757E-82
  -9.540  0.1562E-83  0.4758E-82
  -9.530  0.1562E-83  0.4760E-82
  -9.520  0.1562E-83  0.4761E-82
  -9.510  0.1562E-83  0.4763E-82
  -9.500  0.1562E-83  0.4764E-82
  -9.490  0.1562E-83  0.4766E-82
  -9.480  0.1562E-83  0.4767E-82
  -9.470  0.1562E-83  0.4769E-82
  -9.460  0.1562E-83  0.4771E-82
  -9.450  0.1562E-83  0.4772E-82
  -9.440  0.1562E-83  0.4774E-82
  -9.430  0.1562E-83  0.4775E-82
  -9.420  0.1562E-83  0.4777E-82
  -9.410  0.1562E-83  0.4778E-82
  -9.400  0.1562E-83  0.4780E-82
  -9.390  0.1562E-83  0.4781E-82
  -9.380  0.1562E-83  0.4783E-82
  -9.370  0.1562E-83  0.4785E-82
  -9.360  0.1562E-83  0.4786E-82
  -9.350  0.1562E-83  0.4788E-82
  -9.340  0.1562E-83  0.4789E-82
  -9.330  0.1562E-83  0.4791E-82
  -9.320  0.1562E-83  0.4792E-82
  -9.310  0.1562E-83  0.4794E-82
  -9.300  0.1562E-83  0.4796E-82
  -9.290  0.1562E-83  0.4797E-82
  -9.280  0.1562E-83  0.4799E-82
  -9.270  0.1562E-83  0.4800E-82
  -9.260  0.1562E-83  0.4802E-82
  -9.250  0.1562E-83  0.4803E-82
  -9.240  0.1562E-83  0.4805E-82
  -9.230  0.1562E-83  0.4806E-82
  -9.220  0.1562E-83  0.4808E-82
  -9.210  0.1562E-83  0.4810E-82
  -9.200  0.1562E-83  0.4811E-82
  -9.190  0.1562E-83  0.4813E-82
  -9.180  0.1562E-83  0.4814E-82
  -9.170  0.1562E-83  0.4816E-82
  -9.160  0.1562E-83  0.4817E-82
  -9.150  0.1562E-83  0.4819E-82
  -9.140  0.1562E-83  0.4821E-82
  -9.130  0.1562E-83  0.4822E-82
  -9.120  0.1562E-83  0.4824E-82
  -9.110  0.1562E-83  0.4825E-82
  -9.100  0.1562E-83  0.4827E-82
  -9.090  0.1562E-83  0.4828E-82
  -9.080  0.1562E-83  0.4830E-82
  -9.070  0.1562E-83  0.4831E-82
  -9.060  0.1562E-83  0.4833E-82
  -9.050  0.1562E-83  0.4835E-82
  -9.040  0.1562E-83  0.4836E-82
  -9.030  0.1562E-83  0.4838E-82
  -9.020  0.1562E-83  0.4839E-82
  -9.010  0.1562E-83  0.4841E-82
  -9.000  0.1562E-83  0.4842E-82
  -8.990  0.1562E-83  0.4844E-82
  -8.980  0.1562E-83  0.4846E-82
  -8.970  0.1562E-83  0.4847E-82
  -8.960  0.1562E-83  0.4849E-82
  -8.950  0.1562E-83  0.4850E-82
  -8.940  0.1562E-83  0.4852E-82
  -8.930  0.1562E-83  0.4853E-82
  -8.920  0.1562E-83  0.4855E-82
  -8.910  0.1562E-83  0.4856E-82
  -8.900  0.1562E-83  0.4858E-82
  -8.890  0.1562E-83  0.4860E-82
  -8.880  0.1562E-83  0.4861E-82
  -8.870  0.1562E-83  0.4863E-82
  -8.860  0.1562E-83  0.4864E-82
  -8.850  0.1562E-83  0.4866E-82
  -8.840  0.1562E-83  0.4867E-82
  -8.830  0.1562E-83  0.4869E-82
  -8.820  0.1562E-83  0.4871E-82
  -8.810  0.1562E-83  0.4872E-82
  -8.800  0.1562E-83  0.4874E-82
  -8.790  0.1562E-83  0.4875E-82
  -8.780  0.1562E-83  0.4877E-82
  -8.770  0.1562E-83  0.4878E-82
  -8.760  0.1562E-83  0.4880E-82
  -8.750  0.1562E-83  0.4881E-82
  -8.740  0.1562E-83  0.4883E-82
  -8.730  0.1562E-83  0.4885E-82
  -8.720  0.1562E-83  0.4886E-82
  -8.710  0.1562E-83  0.4888E-82
  -8.700  0.1562E-83  0.4889E-82
  -8.690  0.1562E-83  0.4891E-82
  -8.680  0.1562E-83  0.4892E-82
  -8.670  0.1562E-83  0.4894E-82
  -8.660  0.1562E-83  0.4895E-82
  -8.650  0.1562E-83  0.4897E-82
  -8.640  0.1562E-83  0.4899E-82
  -8.630  0.1562E-83  0.4900E-82
  -8.620  0.1562E-83  0.4902E-82
  -8.610  0.1562E-83  0.4903E-82
  -8.600  0.1562E-83  0.4905E-82
  -8.590  0.1562E-83  0.4906E-82
  -8.580  0.1562E-83  0.4908E-82
  -8.570  0.1562E-83  0.4910E-82
  -8.560  0.1562E-83  0.4911E-82
  -8.550  0.1562E-83  0.4913E-82
  -8.540  0.1562E-83  0.4914E-82
  -8.530  0.1562E-83  0.4916E-82
  -8.520  0.1562E-83  0.4917E-82
  -8.510  0.1562E-83  0.4919E-82
  -8.500  0.1562E-83  0.4920E-82
  -8.490  0.1562E-83  0.4922E-82
  -8.480  0.1562E-83  0.4924E-82
  -8.470  0.1562E-83  0.4925E-82
  -8.460  0.1562E-83  0.4927E-82
  -8.450  0.1562E-83  0.4928E-82
  -8.440  0.1562E-83  0.4930E-82
  -8.430  0.1562E-83  0.4931E-82
  -8.420  0.1562E-83  0.4933E-82
  -8.410  0.1562E-83  0.4935E-82
  -8.400  0.1562E-83  0.4936E-82
  -8.390  0.1562E-83  0.4938E-82
  -8.380  0.1562E-83  0.4939E-82
  -8.370  0.1562E-83  0.4941E-82
  -8.360  0.1562E-83  0.4942E-82
  -8.350  0.1562E-83  0.4944E-82
  -8.340  0.1562E-83  0.4945E-82
  -8.330  0.1562E-83  0.4947E-82
  -8.320  0.1562E-83  0.4949E-82
  -8.310  0.1562E-83  0.4950E-82
  -8.300  0.1562E-83  0.4952E-82
  -8.290  0.1562E-83  0.4953E-82
  -8.280  0.1562E-83  0.4955E-82
  -8.270  0.1562E-83  0.4956E-82
  -8.260  0.1562E-83  0.4958E-82
  -8.250  0.1562E-83  0.4960E-82
  -8.240  0.1562E-83  0.4961E-82
  -8.230  0.1562E-83  0.4963E-82
  -8.220  0.1562E-83  0.4964E-82
  -8.210  0.1562E-83  0.4966E-82
  -8.200  0.1562E-83  0.4967E-82
  -8.190  0.1562E-83  0.4969E-82
  -8.180  0.1562E-83  0.4970E-82
  -8.170  0.1562E-83  0.4972E-82
  -8.160  0.1562E-83  0.4974E-82
  -8.150  0.1562E-83  0.4975E-82
  -8.140  0.1562E-83  0.4977E-82
  -8.130  0.1562E-83  0.4978E-82
  -8.120  0.1562E-83  0.4980E-82
  -8.110  0.1562E-83  0.4981E-82
  -8.100  0.1562E-83  0.4983E-82
  -8.090  0.1562E-83  0.4984E-82
  -8.080  0.1562E-83  0.4986E-82
  -8.070  0.1562E-83  0.4988E-82
  -8.060  0.1562E-83  0.4989E-82
  -8.050  0.1562E-83  0.4991E-82
  -8.040  0.1562E-83  0.4992E-82
  -8.030  0.1562E-83  0.4994E-82
  -8.020  0.1562E-83  0.4995E-82
  -8.010  0.1562E-83  0.4997E-82
  -8.000  0.1562E-83  0.4999E-82
  -7.990  0.1562E-83  0.5000E-82
  -7.980  0.1562E-83  0.5002E-82
  -7.970  0.1562E-83  0.5003E-82
  -7.960  0.1562E-83  0.5005E-82
  -7.950  0.1562E-83  0.5006E-82
  -7.940  0.1562E-83  0.5008E-82
  -7.930  0.1562E-83  0.5009E-82
  -7.920  0.1562E-83  0.5011E-82
  -7.910  0.1562E-83  0.5013E-82
  -7.900  0.1562E-83  0.5014E-82
  -7.890  0.1562E-83  0.5016E-82
  -7.880  0.1562E-83  0.5017E-82
  -7.870  0.1562E-83  0.5019E-82
  -7.860  0.1562E-83  0.5020E-82
  -7.850  0.1562E-83  0.5022E-82
  -7.840  0.1562E-83  0.5024E-82
  -7.830  0.1562E-83  0.5025E-82
  -7.820  0.1562E-83  0.5027E-82
  -7.810  0.1562E-83  0.5028E-82
  -7.800  0.1562E-83  0.5030E-82
  -7.790  0.1562E-83  0.5031E-82
  -7.780  0.1562E-83  0.5033E-82
  -7.770  0.1562E-83  0.5034E-82
  -7.760  0.1562E-83  0.5036E-82
  -7.750  0.1562E-83  0.5038E-82
  -7.740  0.1562E-83  0.5039E-82
  -7.730  0.1562E-83  0.5041E-82
  -7.720  0.1562E-83  0.5042E-82
  -7.710  0.1562E-83  0.5044E-82
  -7.700  0.1562E-83  0.5045E-82
  -7.690  0.1562E-83  0.5047E-82
  -7.680  0.1562E-83  0.5049E-82
  -7.670  0.1562E-83  0.5050E-82
  -7.660  0.1562E-83  0.5052E-82
  -7.650  0.1562E-83  0.5053E-82
  -7.640  0.1562E-83  0.5055E-82
  -7.630  0.1562E-83  0.5056E-82
  -7.620  0.1562E-83  0.5058E-82
  -7.610  0.1562E-83  0.5059E-82
  -7.600  0.1562E-83  0.5061E-82
  -7.590  0.1562E-83  0.5063E-82
  -7.580  0.1562E-83  0.5064E-82
  -7.570  0.1562E-83  0.5066E-82
  -7.560  0.1562E-83  0.5067E-82
  -7.550  0.1562E-83  0.5069E-82
  -7.540  0.1562E-83  0.5070E-82
  -7.530  0.1562E-83  0.5072E-82
  -7.520  0.1562E-83  0.5074E-82
  -7.510  0.1562E-83  0.5075E-82
  -7.500  0.1562E-83  0.5077E-82
  -7.490  0.1562E-83  0.5078E-82
  -7.480  0.1562E-83  0.5080E-82
  -7.470  0.1562E-83  0.5081E-82
  -7.460  0.1562E-83  0.5083E-82
  -7.450  0.1562E-83  0.5084E-82
  -7.440  0.1562E-83  0.5086E-82
  -7.430  0.1562E-83  0.5088E-82
  -7.420  0.1562E-83  0.5089E-82
  -7.410  0.1562E-83  0.5091E-82
  -7.400  0.1562E-83  0.5092E-82
  -7.390  0.1562E-83  0.5094E-82
  -7.380  0.1562E-83  0.5095E-82
  -7.370  0.1562E-83  0.5097E-82
  -7.360  0.1562E-83  0.5098E-82
  -7.350  0.1562E-83  0.5100E-82
  -7.340  0.1562E-83  0.5102E-82
  -7.330  0.1562E-83  0.5103E-82
  -7.320  0.1562E-83  0.5105E-82
  -7.310  0.1562E-83  0.5106E-82
  -7.300  0.1562E-83  0.5108E-82
  -7.290  0.1562E-83  0.5109E-82
  -7.280  0.1562E-83  0.5111E-82
  -7.270  0.1562E-83  0.5113E-82
  -7.260  0.1562E-83  0.5114E-82
  -7.250  0.1562E-83  0.5116E-82
  -7.240  0.1562E-83  0.5117E-82
  -7.230  0.1562E-83  0.5119E-82
  -7.220  0.1562E-83  0.5120E-82
  -7.210  0.1562E-83  0.5122E-82
  -7.200  0.1562E-83  0.5123E-82
  -7.190  0.1562E-83  0.5125E-82
  -7.180  0.1562E-83  0.5127E-82
  -7.170  0.1562E-83  0.5128E-82
  -7.160  0.1562E-83  0.5130E-82
  -7.150  0.1562E-83  0.5131E-82
  -7.140  0.1562E-83  0.5133E-82
  -7.130  0.1562E-83  0.5134E-82
  -7.120  0.1562E-83  0.5136E-82
  -7.110  0.1562E-83  0.5138E-82
  -7.100  0.1562E-83  0.5139E-82
  -7.090  0.1562E-83  0.5141E-82
  -7.080  0.1562E-83  0.5142E-82
  -7.070  0.1562E-83  0.5144E-82
  -7.060  0.1562E-83  0.5145E-82
  -7.050  0.1562E-83  0.5147E-82
  -7.040  0.1562E-83  0.5148E-82
  -7.030  0.1562E-83  0.5150E-82
  -7.020  0.1562E-83  0.5152E-82
  -7.010  0.1562E-83  0.5153E-82
  -7.000  0.1562E-83  0.5155E-82
  -6.990  0.1562E-83  0.5156E-82
  -6.980  0.1562E-83  0.5158E-82
  -6.970  0.1562E-83  0.5159E-82
  -6.960  0.1562E-83  0.5161E-82
  -6.950  0.1562E-83  0.5163E-82
  -6.940  0.1562E-83  0.5164E-82
  -6.930  0.1562E-83  0.5166E-82
  -6.920  0.1562E-83  0.5167E-82
  -6.910  0.1562E-83  0.5169E-82
  -6.900  0.1562E-83  0.5170E-82
  -6.890  0.1562E-83  0.5172E-82
  -6.880  0.1562E-83  0.5173E-82
  -6.870  0.1562E-83  0.5175E-82
  -6.860  0.1562E-83  0.5177E-82
  -6.850  0.1562E-83  0.5178E-82
  -6.840  0.1562E-83  0.5180E-82
  -6.830  0.1562E-83  0.5181E-82
  -6.820  0.1562E-83  0.5183E-82
  -6.810  0.1562E-83  0.5184E-82
  -6.800  0.1562E-83  0.5186E-82
  -6.790  0.1562E-83  0.5188E-82
  -6.780  0.1562E-83  0.5189E-82
  -6.770  0.1562E-83  0.5191E-82
  -6.760  0.1562E-83  0.5192E-82
  -6.750  0.1562E-83  0.5194E-82
  -6.740  0.1562E-83  0.5195E-82
  -6.730  0.1562E-83  0.5197E-82
  -6.720  0.1562E-83  0.5198E-82
  -6.710  0.1562E-83  0.5200E-82
  -6.700  0.1562E-83  0.5202E-82
  -6.690  0.1562E-83  0.5203E-82
  -6.680  0.1562E-83  0.5205E-82
  -6.670  0.1562E-83  0.5206E-82
  -6.660  0.1562E-83  0.5208E-82
  -6.650  0.1562E-83  0.5209E-82
  -6.640  0.1562E-83  0.5211E-82
  -6.630  0.1562E-83  0.5212E-82
  -6.620  0.1562E-83  0.5214E-82
  -6.610  0.1562E-83  0.5216E-82
  -6.600  0.1562E-83  0.5217E-82
  -6.590  0.1562E-83  0.5219E-82
  -6.580  0.1562E-83  0.5220E-82
  -6.570  0.1562E-83  0.5222E-82
  -6.560  0.1562E-83  0.5223E-82
  -6.550  0.1562E-83  0.5225E-82
  -6.540  0.1562E-83  0.5227E-82
  -6.530  0.1562E-83  0.5228E-82
  -6.520  0.1562E-83  0.5230E-82
  -6.510  0.1562E-83  0.5231E-82
  -6.500  0.1562E-83  0.5233E-82
  -6.490  0.1562E-83  0.5234E-82
  -6.480  0.1562E-83  0.5236E-82
  -6.470  0.1562E-83  0.5237E-82
  -6.460  0.1562E-83  0.5239E-82
  -6.450  0.1562E-83  0.5241E-82
  -6.440  0.1562E-83  0.5242E-82
  -6.430  0.1562E-83  0.5244E-82
  -6.420  0.1562E-83  0.5245E-82
  -6.410  0.1562E-83  0.5247E-82
  -6.400  0.1562E-83  0.5248E-82
  -6.390  0.1562E-83  0.5250E-82
  -6.380  0.1562E-83  0.5252E-82
  -6.370  0.1562E-83  0.5253E-82
  -6.360  0.1562E-83  0.5255E-82
  -6.350  0.1562E-83  0.5256E-82
  -6.340  0.1562E-83  0.5258E-82
  -6.330  0.1562E-83  0.5259E-82
  -6.320  0.1562E-83  0.5261E-82
  -6.310  0.1562E-83  0.5262E-82
  -6.300  0.1562E-83  0.5264E-82
  -6.290  0.1562E-83  0.5266E-82
  -6.280  0.1562E-83  0.5267E-82
  -6.270  0.1562E-83  0.5269E-82
  -6.260  0.1562E-83  0.5270E-82
  -6.250  0.1562E-83  0.5272E-82
  -6.240  0.1562E-83  0.5273E-82
  -6.230  0.1562E-83  0.5275E-82
  -6.220  0.1562E-83  0.5277E-82
  -6.210  0.1562E-83  0.5278E-82
  -6.200  0.1562E-83  0.5280E-82
  -6.190  0.1562E-83  0.5281E-82
  -6.180  0.1562E-83  0.5283E-82
  -6.170  0.1562E-83  0.5284E-82
  -6.160  0.1562E-83  0.5286E-82
  -6.150  0.1562E-83  0.5287E-82
  -6.140  0.1562E-83  0.5289E-82
  -6.130  0.1562E-83  0.5291E-82
  -6.120  0.1562E-83  0.5292E-82
  -6.110  0.1562E-83  0.5294E-82
  -6.100  0.1562E-83  0.5295E-82
  -6.090  0.1562E-83  0.5297E-82
  -6.080  0.1562E-83  0.5298E-82
  -6.070  0.1562E-83  0.5300E-82
  -6.060  0.1562E-83  0.5301E-82
  -6.050  0.1562E-83  0.5303E-82
  -6.040  0.1562E-83  0.5305E-82
  -6.030  0.1562E-83  0.5306E-82
  -6.020  0.1562E-83  0.5308E-82
  -6.010  0.7286E-79  0.7817E-81
  -6.000  0.1460E-67  0.1460E-69
  -5.990  0.3958E-57  0.3958E-59
  -5.980  0.1453E-47  0.1453E-49
  -5.970  0.7223E-39  0.7223E-41
  -5.960  0.4866E-31  0.4866E-33
  -5.950  0.4446E-24  0.4446E-26
  -5.940  0.5520E-18  0.5520E-20
  -5.930  0.9336E-13  0.9336E-15
  -5.920  0.2163E-08  0.2163E-10
  -5.910  0.6917E-05  0.6919E-07
  -5.900  0.3095E-02  0.3102E-04
  -5.890  0.1977E+00  0.2008E-02
  -5.880  0.1895E+01  0.2096E-01
  -5.870  0.3343E+01  0.5439E-01
  -5.860  0.2139E+01  0.7578E-01
  -5.850  0.1622E+01  0.9200E-01
  -5.840  0.1070E+01  0.1027E+00
  -5.830  0.1306E+01  0.1158E+00
  -5.820  0.8615E+00  0.1244E+00
  -5.810  0.8024E+00  0.1324E+00
  -5.800  0.1154E+01  0.1439E+00
  -5.790  0.5592E+00  0.1495E+00
  -5.780  0.6435E+00  0.1560E+00
  -5.770  0.9604E+00  0.1656E+00
  -5.760  0.7133E+00  0.1727E+00
  -5.750  0.3601E+00  0.1763E+00
  -5.740  0.7396E+00  0.1837E+00
  -5.730  0.7056E+00  0.1908E+00
  -5.720  0.6674E+00  0.1974E+00
  -5.710  0.3052E+00  0.2005E+00
  -5.700  0.6831E+00  0.2073E+00
  -5.690  0.4765E+00  0.2121E+00
  -5.680  0.6477E+00  0.2186E+00
  -5.670  0.4791E+00  0.2233E+00
  -5.660  0.3731E+00  0.2271E+00
  -5.650  0.6910E+00  0.2340E+00
  -5.640  0.2531E+00  0.2365E+00
  -5.630  0.5046E+00  0.2416E+00
  -5.620  0.5991E+00  0.2476E+00
  -5.610  0.3029E+00  0.2506E+00
  -5.600  0.6956E+00  0.2575E+00
  -5.590  0.3151E+00  0.2607E+00
  -5.580  0.1108E+00  0.2618E+00
  -5.570  0.5848E+00  0.2676E+00
  -5.560  0.5249E+00  0.2729E+00
  -5.550  0.3841E+00  0.2767E+00
  -5.540  0.6911E+00  0.2837E+00
  -5.530  0.1985E+00  0.2856E+00
  -5.520  0.2964E-01  0.2859E+00
  -5.510  0.3339E+00  0.2893E+00
  -5.500  0.6932E+00  0.2962E+00
  -5.490  0.3609E+00  0.2998E+00
  -5.480  0.6828E+00  0.3066E+00
  -5.470  0.3648E+00  0.3103E+00
  -5.460  0.2682E-01  0.3106E+00
  -5.450  0.2032E-01  0.3108E+00
  -5.440  0.3202E+00  0.3140E+00
  -5.430  0.7023E+00  0.3210E+00
  -5.420  0.4365E+00  0.3253E+00
  -5.410  0.7073E+00  0.3324E+00
  -5.400  0.2826E+00  0.3352E+00
  -5.390  0.1545E-01  0.3354E+00
  -5.380  0.1533E-02  0.3354E+00
  -5.370  0.7600E-01  0.3362E+00
  -5.360  0.5528E+00  0.3417E+00
  -5.350  0.6291E+00  0.3480E+00
  -5.340  0.6499E+00  0.3545E+00
  -5.330  0.5128E+00  0.3596E+00
  -5.320  0.6124E-01  0.3602E+00
  -5.310  0.9933E-03  0.3602E+00
  -5.300  0.5675E-03  0.3603E+00
  -5.290  0.4327E-01  0.3607E+00
  -5.280  0.4507E+00  0.3652E+00
  -5.270  0.7369E+00  0.3726E+00
  -5.260  0.7327E+00  0.3799E+00
  -5.250  0.4711E+00  0.3846E+00
  -5.240  0.4834E-01  0.3851E+00
  -5.230  0.6753E-03  0.3851E+00
  -5.220  0.7506E-05  0.3851E+00
  -5.210  0.2101E-02  0.3851E+00
  -5.200  0.9612E-01  0.3861E+00
  -5.190  0.6176E+00  0.3922E+00
  -5.180  0.8518E+00  0.4008E+00
  -5.170  0.7349E+00  0.4081E+00
  -5.160  0.1757E+00  0.4099E+00
  -5.150  0.6095E-02  0.4099E+00
  -5.140  0.2874E-04  0.4099E+00
  -5.130  0.7881E-06  0.4099E+00
  -5.120  0.4676E-03  0.4099E+00
  -5.110  0.3865E-01  0.4103E+00
  -5.100  0.4536E+00  0.4149E+00
  -5.090  0.1008E+01  0.4249E+00
  -5.080  0.8059E+00  0.4330E+00
  -5.070  0.1723E+00  0.4347E+00
  -5.060  0.5715E-02  0.4348E+00
  -5.050  0.2609E-04  0.4348E+00
  -5.040  0.1695E-07  0.4348E+00
  -5.030  0.2571E-05  0.4348E+00
  -5.020  0.1129E-02  0.4348E+00
  -5.010  0.6910E-01  0.4355E+00
  -5.000  0.6489E+00  0.4420E+00
  -4.990  0.1201E+01  0.4540E+00
  -4.980  0.5213E+00  0.4592E+00
  -4.970  0.4267E-01  0.4596E+00
  -4.960  0.5239E-03  0.4596E+00
  -4.950  0.8918E-06  0.4596E+00
  -4.940  0.2337E-09  0.4596E+00
  -4.930  0.1820E-06  0.4596E+00
  -4.920  0.1682E-03  0.4596E+00
  -4.910  0.2203E-01  0.4598E+00
  -4.900  0.4282E+00  0.4641E+00
  -4.890  0.1316E+01  0.4773E+00
  -4.880  0.6639E+00  0.4839E+00
  -4.870  0.5367E-01  0.4845E+00
  -4.860  0.6537E-03  0.4845E+00
  -4.850  0.1138E-05  0.4845E+00
  -4.840  0.2749E-09  0.4845E+00
  -4.830  0.1246E-09  0.4845E+00
  -4.820  0.6735E-06  0.4845E+00
  -4.810  0.4988E-03  0.4845E+00
  -4.800  0.5068E-01  0.4850E+00
  -4.790  0.7072E+00  0.4920E+00
  -4.780  0.1356E+01  0.5056E+00
  -4.770  0.3573E+00  0.5092E+00
  -4.760  0.1294E-01  0.5093E+00
  -4.750  0.6429E-04  0.5093E+00
  -4.740  0.4382E-07  0.5093E+00
  -4.730  0.4091E-11  0.5093E+00
  -4.720  0.1920E-10  0.5093E+00
  -4.710  0.1485E-06  0.5093E+00
  -4.700  0.1586E-03  0.5093E+00
  -4.690  0.2347E-01  0.5095E+00
  -4.680  0.4834E+00  0.5144E+00
  -4.670  0.1389E+01  0.5283E+00
  -4.660  0.5573E+00  0.5338E+00
  -4.650  0.3121E-01  0.5342E+00
  -4.640  0.2432E-03  0.5342E+00
  -4.630  0.2627E-06  0.5342E+00
  -4.620  0.3919E-10  0.5342E+00
  -4.610  0.4624E-13  0.5342E+00
  -4.600  0.1032E-08  0.5342E+00
  -4.590  0.3214E-05  0.5342E+00
  -4.580  0.1393E-02  0.5342E+00
  -4.570  0.8684E-01  0.5350E+00
  -4.560  0.8220E+00  0.5433E+00
  -4.550  0.1251E+01  0.5558E+00
  -4.540  0.3109E+00  0.5589E+00
  -4.530  0.1207E-01  0.5590E+00
  -4.520  0.6898E-04  0.5590E+00
  -4.510  0.5556E-07  0.5590E+00
  -4.500  0.6167E-11  0.5590E+00
  -4.490  0.2184E-13  0.5590E+00
  -4.480  0.5596E-09  0.5590E+00
  -4.470  0.1955E-05  0.5590E+00
  -4.460  0.9356E-03  0.5590E+00
  -4.450  0.6317E-01  0.5596E+00
  -4.440  0.6577E+00  0.5662E+00
  -4.430  0.1252E+01  0.5787E+00
  -4.420  0.4784E+00  0.5835E+00
  -4.410  0.3225E-01  0.5838E+00
  -4.400  0.3271E-03  0.5838E+00
  -4.390  0.4641E-06  0.5838E+00
  -4.380  0.8993E-10  0.5838E+00
  -4.370  0.2395E-14  0.5838E+00
  -4.360  0.2376E-11  0.5838E+00
  -4.350  0.2544E-07  0.5838E+00
  -4.340  0.3697E-04  0.5838E+00
  -4.330  0.7358E-02  0.5839E+00
  -4.320  0.2092E+00  0.5860E+00
  -4.310  0.9892E+00  0.5959E+00
  -4.300  0.1030E+01  0.6062E+00
  -4.290  0.2393E+00  0.6086E+00
  -4.280  0.9380E-02  0.6087E+00
  -4.270  0.5276E-04  0.6087E+00
  -4.260  0.4069E-07  0.6087E+00
  -4.250  0.4259E-11  0.6087E+00
  -4.240  0.7610E-16  0.6087E+00
  -4.230  0.1383E-11  0.6087E+00
  -4.220  0.1644E-07  0.6087E+00
  -4.210  0.2651E-04  0.6087E+00
  -4.200  0.5843E-02  0.6088E+00
  -4.190  0.1826E+00  0.6106E+00
  -4.180  0.9368E+00  0.6199E+00
  -4.170  0.1065E+01  0.6306E+00
  -4.160  0.2811E+00  0.6334E+00
  -4.150  0.1277E-01  0.6335E+00
  -4.140  0.8351E-04  0.6335E+00
  -4.130  0.7491E-07  0.6335E+00
  -4.120  0.9118E-11  0.6335E+00
  -4.110  0.1503E-15  0.6335E+00
  -4.100  0.3954E-14  0.6335E+00
  -4.090  0.1375E-09  0.6335E+00
  -4.080  0.6482E-06  0.6335E+00
  -4.070  0.4170E-03  0.6335E+00
  -4.060  0.3744E-01  0.6339E+00
  -4.050  0.5068E+00  0.6390E+00
  -4.040  0.1240E+01  0.6514E+00
  -4.030  0.6376E+00  0.6578E+00
  -4.020  0.6112E-01  0.6584E+00
  -4.010  0.9009E-03  0.6584E+00
  -4.000  0.1865E-05  0.6584E+00
  -3.990  0.5277E-09  0.6584E+00
  -3.980  0.2026E-13  0.6584E+00
  -3.970  0.1182E-18  0.6584E+00
  -3.960  0.3405E-14  0.6584E+00
  -3.950  0.1228E-09  0.6584E+00
  -3.940  0.6072E-06  0.6584E+00
  -3.930  0.4169E-03  0.6584E+00
  -3.920  0.4081E-01  0.6588E+00
  -3.910  0.5935E+00  0.6647E+00
  -3.900  0.1342E+01  0.6782E+00
  -3.890  0.4809E+00  0.6830E+00
  -3.880  0.2667E-01  0.6832E+00
  -3.870  0.2187E-03  0.6832E+00
  -3.860  0.2546E-06  0.6832E+00
  -3.850  0.4109E-10  0.6832E+00
  -3.840  0.9077E-15  0.6832E+00
  -3.830  0.2803E-20  0.6832E+00
  -3.820  0.4479E-16  0.6832E+00
  -3.810  0.3635E-11  0.6832E+00
  -3.800  0.4023E-07  0.6832E+00
  -3.790  0.6074E-04  0.6832E+00
  -3.780  0.1252E-01  0.6834E+00
  -3.770  0.3525E+00  0.6869E+00
  -3.760  0.1356E+01  0.7004E+00
  -3.750  0.7123E+00  0.7076E+00
  -3.740  0.5115E-01  0.7081E+00
  -3.730  0.5016E-03  0.7081E+00
  -3.720  0.6717E-06  0.7081E+00
  -3.710  0.1227E-09  0.7081E+00
  -3.700  0.3059E-14  0.7081E+00
  -3.690  0.1040E-19  0.7081E+00
  -3.680  0.3599E-17  0.7081E+00
  -3.670  0.4002E-12  0.7081E+00
  -3.660  0.6025E-08  0.7081E+00
  -3.650  0.1229E-04  0.7081E+00
  -3.640  0.3411E-02  0.7081E+00
  -3.630  0.1324E+00  0.7094E+00
  -3.620  0.8142E+00  0.7176E+00
  -3.610  0.1115E+01  0.7287E+00
  -3.600  0.3934E+00  0.7327E+00
  -3.590  0.2532E-01  0.7329E+00
  -3.580  0.2368E-03  0.7329E+00
  -3.570  0.3037E-06  0.7329E+00
  -3.560  0.5286E-10  0.7329E+00
  -3.550  0.1246E-14  0.7329E+00
  -3.540  0.6559E-19  0.7329E+00
  -3.530  0.1285E-13  0.7329E+00
  -3.520  0.3628E-09  0.7329E+00
  -3.510  0.1386E-05  0.7329E+00
  -3.500  0.7166E-03  0.7329E+00
  -3.490  0.5014E-01  0.7334E+00
  -3.480  0.4757E+00  0.7382E+00
  -3.470  0.6675E+00  0.7449E+00
  -3.460  0.6101E+00  0.7510E+00
  -3.450  0.5866E+00  0.7568E+00
  -3.440  0.9152E-01  0.7577E+00
  -3.430  0.1940E-02  0.7578E+00
  -3.420  0.5594E-05  0.7578E+00
  -3.410  0.4436E-04  0.7578E+00
  -3.400  0.1026E-01  0.7579E+00
  -3.390  0.3333E+00  0.7612E+00
  -3.380  0.1746E+01  0.7787E+00
  -3.370  0.2185E+01  0.8005E+00
  -3.360  0.1333E+01  0.8138E+00
  -3.350  0.1431E+01  0.8282E+00
  -3.340  0.8048E+00  0.8362E+00
  -3.330  0.1743E+01  0.8536E+00
  -3.320  0.1398E+01  0.8676E+00
  -3.310  0.3073E+00  0.8707E+00
  -3.300  0.1022E+01  0.8809E+00
  -3.290  0.1857E+01  0.8995E+00
  -3.280  0.6912E+00  0.9064E+00
  -3.270  0.4782E-01  0.9069E+00
  -3.260  0.1549E+00  0.9084E+00
  -3.250  0.1050E+01  0.9189E+00
  -3.240  0.1096E+01  0.9299E+00
  -3.230  0.1757E+00  0.9316E+00
  -3.220  0.5117E-02  0.9317E+00
  -3.210  0.6909E-01  0.9324E+00
  -3.200  0.8520E+00  0.9409E+00
  -3.190  0.1921E+01  0.9601E+00
  -3.180  0.8219E+00  0.9683E+00
  -3.170  0.6083E-01  0.9689E+00
  -3.160  0.1643E-02  0.9690E+00
  -3.150  0.8157E-01  0.9698E+00
  -3.140  0.1016E+01  0.9799E+00
  -3.130  0.1960E+01  0.9995E+00
  -3.120  0.6329E+00  0.1006E+01
  -3.110  0.3473E-01  0.1006E+01
  -3.100  0.3040E-03  0.1006E+01
  -3.090  0.6079E-03  0.1006E+01
  -3.080  0.4930E-01  0.1007E+01
  -3.070  0.6113E+00  0.1013E+01
  -3.060  0.1355E+01  0.1026E+01
  -3.050  0.1012E+01  0.1036E+01
  -3.040  0.6088E+00  0.1043E+01
  -3.030  0.8790E-01  0.1043E+01
  -3.020  0.1807E-02  0.1043E+01
  -3.010  0.1967E-02  0.1043E+01
  -3.000  0.1002E+00  0.1044E+01
  -2.990  0.8076E+00  0.1053E+01
  -2.980  0.1299E+01  0.1066E+01
  -2.970  0.9450E+00  0.1075E+01
  -2.960  0.5150E+00  0.1080E+01
  -2.950  0.5678E-01  0.1081E+01
  -2.940  0.8762E-03  0.1081E+01
  -2.930  0.1190E-02  0.1081E+01
  -2.920  0.7894E-01  0.1082E+01
  -2.910  0.8225E+00  0.1090E+01
  -2.900  0.1679E+01  0.1107E+01
  -2.890  0.9864E+00  0.1116E+01
  -2.880  0.1541E+00  0.1118E+01
  -2.870  0.4169E-02  0.1118E+01
  -2.860  0.1617E-04  0.1118E+01
  -2.850  0.1602E-07  0.1118E+01
  -2.840  0.1442E-04  0.1118E+01
  -2.830  0.3811E-02  0.1118E+01
  -2.820  0.1414E+00  0.1119E+01
  -2.810  0.8833E+00  0.1128E+01
  -2.800  0.1621E+01  0.1145E+01
  -2.790  0.9719E+00  0.1154E+01
  -2.780  0.2863E+00  0.1157E+01
  -2.770  0.6817E+00  0.1164E+01
  -2.760  0.3546E+00  0.1167E+01
  -2.750  0.2503E-01  0.1168E+01
  -2.740  0.2552E-03  0.1168E+01
  -2.730  0.4093E-02  0.1168E+01
  -2.720  0.1425E+00  0.1169E+01
  -2.710  0.7496E+00  0.1177E+01
  -2.700  0.1005E+01  0.1187E+01
  -2.690  0.5267E+00  0.1192E+01
  -2.680  0.5542E-01  0.1193E+01
  -2.670  0.8444E-03  0.1193E+01
  -2.660  0.3107E-02  0.1193E+01
  -2.650  0.1202E+00  0.1194E+01
  -2.640  0.6389E+00  0.1200E+01
  -2.630  0.6674E+00  0.1207E+01
  -2.620  0.7634E+00  0.1214E+01
  -2.610  0.6455E+00  0.1221E+01
  -2.600  0.8111E+00  0.1229E+01
  -2.590  0.7994E+00  0.1237E+01
  -2.580  0.4718E+00  0.1242E+01
  -2.570  0.4757E-01  0.1242E+01
  -2.560  0.6576E-03  0.1242E+01
  -2.550  0.1448E-05  0.1242E+01
  -2.540  0.1837E-03  0.1242E+01
  -2.530  0.2110E-01  0.1242E+01
  -2.520  0.3280E+00  0.1246E+01
  -2.510  0.7113E+00  0.1253E+01
  -2.500  0.5300E+00  0.1258E+01
  -2.490  0.7073E+00  0.1265E+01
  -2.480  0.4431E+00  0.1270E+01
  -2.470  0.7081E+00  0.1277E+01
  -2.460  0.2772E+00  0.1279E+01
  -2.450  0.2705E+00  0.1282E+01
  -2.440  0.7009E+00  0.1289E+01
  -2.430  0.2587E+00  0.1292E+01
  -2.420  0.1346E-01  0.1292E+01
  -2.410  0.4220E-01  0.1292E+01
  -2.400  0.4522E+00  0.1297E+01
  -2.390  0.8486E+00  0.1305E+01
  -2.380  0.8179E+00  0.1314E+01
  -2.370  0.3085E+00  0.1317E+01
  -2.360  0.1409E+00  0.1318E+01
  -2.350  0.6334E+00  0.1324E+01
  -2.340  0.4405E+00  0.1329E+01
  -2.330  0.4147E-01  0.1329E+01
  -2.320  0.5297E-03  0.1329E+01
  -2.310  0.7114E-03  0.1329E+01
  -2.300  0.4993E-01  0.1330E+01
  -2.290  0.4832E+00  0.1335E+01
  -2.280  0.8327E+00  0.1343E+01
  -2.270  0.9284E+00  0.1352E+01
  -2.260  0.9372E+00  0.1362E+01
  -2.250  0.4535E+00  0.1366E+01
  -2.240  0.4564E-01  0.1367E+01
  -2.230  0.1580E+00  0.1368E+01
  -2.220  0.6672E+00  0.1375E+01
  -2.210  0.3833E+00  0.1379E+01
  -2.200  0.8104E-01  0.1379E+01
  -2.190  0.4896E+00  0.1384E+01
  -2.180  0.8369E+00  0.1393E+01
  -2.170  0.8025E+00  0.1401E+01
  -2.160  0.2878E+00  0.1404E+01
  -2.150  0.1578E-01  0.1404E+01
  -2.140  0.1179E-03  0.1404E+01
  -2.130  0.2037E-05  0.1404E+01
  -2.120  0.9072E-03  0.1404E+01
  -2.110  0.5854E-01  0.1404E+01
  -2.100  0.5467E+00  0.1410E+01
  -2.090  0.1057E+01  0.1420E+01
  -2.080  0.9778E+00  0.1430E+01
  -2.070  0.8175E+00  0.1438E+01
  -2.060  0.2558E+00  0.1441E+01
  -2.050  0.1236E-01  0.1441E+01
  -2.040  0.8166E-04  0.1441E+01
  -2.030  0.7305E-07  0.1441E+01
  -2.020  0.8844E-11  0.1441E+01
  -2.010  0.1451E-15  0.1441E+01
  -2.000  0.3586E-13  0.1441E+01
  -1.990  0.8422E-09  0.1441E+01
  -1.980  0.2677E-05  0.1441E+01
  -1.970  0.1151E-02  0.1441E+01
  -1.960  0.6703E-01  0.1442E+01
  -1.950  0.5281E+00  0.1447E+01
  -1.940  0.5630E+00  0.1453E+01
  -1.930  0.8124E-01  0.1453E+01
  -1.920  0.1587E-02  0.1453E+01
  -1.910  0.7833E-04  0.1453E+01
  -1.900  0.1158E-01  0.1454E+01
  -1.890  0.2448E+00  0.1456E+01
  -1.880  0.7004E+00  0.1463E+01
  -1.870  0.2712E+00  0.1466E+01
  -1.860  0.1421E-01  0.1466E+01
  -1.850  0.1008E-03  0.1466E+01
  -1.840  0.6441E-06  0.1466E+01
  -1.830  0.3641E-03  0.1466E+01
  -1.820  0.3278E-01  0.1466E+01
  -1.810  0.3993E+00  0.1470E+01
  -1.800  0.6584E+00  0.1477E+01
  -1.790  0.1469E+00  0.1478E+01
  -1.780  0.4437E-02  0.1478E+01
  -1.770  0.1813E-04  0.1478E+01
  -1.760  0.1003E-07  0.1478E+01
  -1.750  0.7508E-12  0.1478E+01
  -1.740  0.6570E-12  0.1478E+01
  -1.730  0.1288E-07  0.1478E+01
  -1.720  0.3490E-04  0.1478E+01
  -1.710  0.1324E-01  0.1478E+01
  -1.700  0.7233E+00  0.1486E+01
  -1.690  0.6134E+01  0.1547E+01
  -1.680  0.1033E+02  0.1650E+01
  -1.670  0.7502E+01  0.1725E+01
  -1.660  0.6162E+01  0.1787E+01
  -1.650  0.5072E+01  0.1838E+01
  -1.640  0.4308E+01  0.1881E+01
  -1.630  0.4010E+01  0.1921E+01
  -1.620  0.3835E+01  0.1959E+01
  -1.610  0.3730E+01  0.1996E+01
  -1.600  0.3681E+01  0.2033E+01
  -1.590  0.3683E+01  0.2070E+01
  -1.580  0.3738E+01  0.2108E+01
  -1.570  0.3858E+01  0.2146E+01
  -1.560  0.4065E+01  0.2187E+01
  -1.550  0.4412E+01  0.2231E+01
  -1.540  0.5044E+01  0.2281E+01
  -1.530  0.6579E+01  0.2347E+01
  -1.520  0.9366E+01  0.2441E+01
  -1.510  0.6050E+01  0.2501E+01
  -1.500  0.1002E+01  0.2511E+01
  -1.490  0.7093E+00  0.2518E+01
  -1.480  0.3159E+00  0.2522E+01
  -1.470  0.1949E-01  0.2522E+01
  -1.460  0.1627E-03  0.2522E+01
  -1.450  0.1838E-06  0.2522E+01
  -1.440  0.2811E-10  0.2522E+01
  -1.430  0.1455E-14  0.2522E+01
  -1.420  0.3937E-10  0.2522E+01
  -1.410  0.2403E-06  0.2522E+01
  -1.400  0.1984E-03  0.2522E+01
  -1.390  0.2218E-01  0.2522E+01
  -1.380  0.3355E+00  0.2525E+01
  -1.370  0.6869E+00  0.2532E+01
  -1.360  0.1903E+00  0.2534E+01
  -1.350  0.7136E-02  0.2534E+01
  -1.340  0.3621E-04  0.2534E+01
  -1.330  0.5376E-07  0.2534E+01
  -1.320  0.4057E-04  0.2534E+01
  -1.310  0.7711E-02  0.2534E+01
  -1.300  0.1983E+00  0.2536E+01
  -1.290  0.6902E+00  0.2543E+01
  -1.280  0.3251E+00  0.2546E+01
  -1.270  0.2073E-01  0.2547E+01
  -1.260  0.2318E-02  0.2547E+01
  -1.250  0.9691E-01  0.2548E+01
  -1.240  0.5941E+00  0.2554E+01
  -1.230  0.4928E+00  0.2558E+01
  -1.220  0.5533E-01  0.2559E+01
  -1.210  0.8408E-03  0.2559E+01
  -1.200  0.1729E-05  0.2559E+01
  -1.190  0.4812E-09  0.2559E+01
  -1.180  0.1812E-13  0.2559E+01
  -1.170  0.1118E-15  0.2559E+01
  -1.160  0.7119E-11  0.2559E+01
  -1.150  0.6140E-07  0.2559E+01
  -1.140  0.7167E-04  0.2559E+01
  -1.130  0.1132E-01  0.2559E+01
  -1.120  0.2425E+00  0.2562E+01
  -1.110  0.7415E+00  0.2569E+01
  -1.100  0.7950E+00  0.2577E+01
  -1.090  0.1233E+01  0.2589E+01
  -1.080  0.6380E+00  0.2596E+01
  -1.070  0.6418E-01  0.2596E+01
  -1.060  0.9911E-03  0.2596E+01
  -1.050  0.3949E-04  0.2596E+01
  -1.040  0.7288E-02  0.2596E+01
  -1.030  0.1926E+00  0.2598E+01
  -1.020  0.7093E+00  0.2605E+01
  -1.010  0.7379E+00  0.2613E+01
  -1.000  0.1292E+01  0.2626E+01
  -0.990  0.7170E+00  0.2633E+01
  -0.980  0.6964E-01  0.2634E+01
  -0.970  0.1042E-02  0.2634E+01
  -0.960  0.8885E-04  0.2634E+01
  -0.950  0.1285E-01  0.2634E+01
  -0.940  0.2580E+00  0.2636E+01
  -0.930  0.7013E+00  0.2643E+01
  -0.920  0.2945E+00  0.2646E+01
  -0.910  0.5319E+00  0.2652E+01
  -0.900  0.1287E+01  0.2664E+01
  -0.890  0.8455E+00  0.2673E+01
  -0.880  0.7504E+00  0.2680E+01
  -0.870  0.2745E+00  0.2683E+01
  -0.860  0.9064E-01  0.2684E+01
  -0.850  0.5518E+00  0.2690E+01
  -0.840  0.5411E+00  0.2695E+01
  -0.830  0.1539E+00  0.2696E+01
  -0.820  0.1003E+01  0.2706E+01
  -0.810  0.3218E+01  0.2739E+01
  -0.800  0.3877E+01  0.2777E+01
  -0.790  0.2634E+01  0.2804E+01
  -0.780  0.2231E+01  0.2826E+01
  -0.770  0.2206E+01  0.2848E+01
  -0.760  0.1699E+01  0.2865E+01
  -0.750  0.2167E+01  0.2887E+01
  -0.740  0.1278E+01  0.2900E+01
  -0.730  0.1822E+01  0.2918E+01
  -0.720  0.1863E+01  0.2936E+01
  -0.710  0.2307E+01  0.2960E+01
  -0.700  0.1950E+01  0.2979E+01
  -0.690  0.3308E+01  0.3012E+01
  -0.680  0.4450E+01  0.3057E+01
  -0.670  0.4588E+01  0.3102E+01
  -0.660  0.1468E+01  0.3117E+01
  -0.650  0.8558E-01  0.3118E+01
  -0.640  0.7653E-03  0.3118E+01
  -0.630  0.9879E-06  0.3118E+01
  -0.620  0.1804E-09  0.3118E+01
  -0.610  0.1645E-07  0.3118E+01
  -0.600  0.2646E-04  0.3118E+01
  -0.590  0.5757E-02  0.3118E+01
  -0.580  0.1695E+00  0.3120E+01
  -0.570  0.6757E+00  0.3127E+01
  -0.560  0.3644E+00  0.3130E+01
  -0.550  0.2660E-01  0.3130E+01
  -0.540  0.2628E-03  0.3130E+01
  -0.530  0.3514E-06  0.3130E+01
  -0.520  0.6358E-10  0.3130E+01
  -0.510  0.1178E-10  0.3130E+01
  -0.500  0.9188E-07  0.3130E+01
  -0.490  0.9698E-04  0.3130E+01
  -0.480  0.1385E-01  0.3131E+01
  -0.470  0.2685E+00  0.3133E+01
  -0.460  0.7491E+00  0.3141E+01
  -0.450  0.7169E+00  0.3148E+01
  -0.440  0.6249E+00  0.3154E+01
  -0.430  0.1086E+00  0.3155E+01
  -0.420  0.2598E-02  0.3155E+01
  -0.410  0.8419E-05  0.3155E+01
  -0.400  0.3693E-08  0.3155E+01
  -0.390  0.2192E-12  0.3155E+01
  -0.380  0.1779E-17  0.3155E+01
  -0.370  0.4431E-14  0.3155E+01
  -0.360  0.1509E-09  0.3155E+01
  -0.350  0.6956E-06  0.3155E+01
  -0.340  0.4339E-03  0.3155E+01
  -0.330  0.3663E-01  0.3156E+01
  -0.320  0.4186E+00  0.3160E+01
  -0.310  0.6473E+00  0.3166E+01
  -0.300  0.1355E+00  0.3168E+01
  -0.290  0.3836E-02  0.3168E+01
  -0.280  0.2724E-04  0.3168E+01
  -0.270  0.3434E-02  0.3168E+01
  -0.260  0.1272E+00  0.3169E+01
  -0.250  0.6381E+00  0.3175E+01
  -0.240  0.4331E+00  0.3180E+01
  -0.230  0.3978E-01  0.3180E+01
  -0.220  0.4945E-03  0.3180E+01
  -0.210  0.5941E-05  0.3180E+01
  -0.200  0.1826E-02  0.3180E+01
  -0.190  0.8829E-01  0.3181E+01
  -0.180  0.5778E+00  0.3187E+01
  -0.170  0.5118E+00  0.3192E+01
  -0.160  0.6135E-01  0.3193E+01
  -0.150  0.9953E-03  0.3193E+01
  -0.140  0.2185E-05  0.3193E+01
  -0.130  0.6493E-09  0.3193E+01
  -0.120  0.2611E-13  0.3193E+01
  -0.110  0.1421E-18  0.3193E+01
  -0.100  0.9620E-20  0.3193E+01
  -0.090  0.2916E-14  0.3193E+01
  -0.080  0.1198E-09  0.3193E+01
  -0.070  0.6678E-06  0.3193E+01
  -0.060  0.5047E-03  0.3193E+01
  -0.050  0.5173E-01  0.3193E+01
  -0.040  0.7189E+00  0.3200E+01
  -0.030  0.1355E+01  0.3214E+01
  -0.020  0.3464E+00  0.3217E+01
  -0.010  0.1201E-01  0.3217E+01
   0.000  0.5644E-04  0.3217E+01
   0.010  0.3598E-07  0.3217E+01
   0.020  0.3110E-11  0.3217E+01
   0.030  0.3645E-16  0.3217E+01
   0.040  0.5794E-22  0.3217E+01
   0.050  0.7670E-20  0.3217E+01
   0.060  0.2183E-14  0.3217E+01
   0.070  0.8410E-10  0.3217E+01
   0.080  0.4385E-06  0.3217E+01
   0.090  0.3094E-03  0.3217E+01
   0.100  0.2954E-01  0.3218E+01
   0.110  0.3817E+00  0.3222E+01
   0.120  0.6676E+00  0.3228E+01
   0.130  0.1580E+00  0.3230E+01
   0.140  0.5061E-02  0.3230E+01
   0.150  0.2409E-04  0.3230E+01
   0.160  0.9838E-03  0.3230E+01
   0.170  0.6092E-01  0.3230E+01
   0.180  0.5105E+00  0.3236E+01
   0.190  0.5790E+00  0.3241E+01
   0.200  0.8887E-01  0.3242E+01
   0.210  0.1846E-02  0.3242E+01
   0.220  0.5189E-05  0.3242E+01
   0.230  0.4976E-08  0.3242E+01
   0.240  0.7176E-05  0.3242E+01
   0.250  0.2321E-02  0.3242E+01
   0.260  0.1016E+00  0.3243E+01
   0.270  0.6022E+00  0.3249E+01
   0.280  0.4829E+00  0.3254E+01
   0.290  0.5240E-01  0.3255E+01
   0.300  0.7696E-03  0.3255E+01
   0.310  0.1530E-05  0.3255E+01
   0.320  0.4115E-09  0.3255E+01
   0.330  0.1498E-13  0.3255E+01
   0.340  0.6252E-18  0.3255E+01
   0.350  0.8227E-13  0.3255E+01
   0.360  0.1661E-08  0.3255E+01
   0.370  0.4539E-05  0.3255E+01
   0.380  0.1679E-02  0.3255E+01
   0.390  0.8401E-01  0.3256E+01
   0.400  0.5690E+00  0.3261E+01
   0.410  0.5223E+00  0.3266E+01
   0.420  0.1155E+00  0.3268E+01
   0.430  0.4783E+00  0.3272E+01
   0.440  0.6066E+00  0.3278E+01
   0.450  0.1043E+00  0.3279E+01
   0.460  0.2429E-02  0.3279E+01
   0.470  0.7652E-05  0.3279E+01
   0.480  0.3263E-08  0.3279E+01
   0.490  0.1883E-12  0.3279E+01
   0.500  0.1470E-17  0.3279E+01
   0.510  0.1554E-23  0.3279E+01
   0.520  0.2755E-30  0.3279E+01
   0.530  0.4410E-24  0.3279E+01
   0.540  0.4944E-18  0.3279E+01
   0.550  0.7502E-13  0.3279E+01
   0.560  0.1540E-08  0.3279E+01
   0.570  0.4281E-05  0.3279E+01
   0.580  0.1610E-02  0.3280E+01
   0.590  0.8196E-01  0.3280E+01
   0.600  0.5659E+00  0.3286E+01
   0.610  0.5999E+00  0.3292E+01
   0.620  0.6113E+00  0.3298E+01
   0.630  0.5479E+00  0.3304E+01
   0.640  0.7424E-01  0.3304E+01
   0.650  0.1364E-02  0.3304E+01
   0.660  0.3392E-05  0.3304E+01
   0.670  0.1142E-08  0.3304E+01
   0.680  0.5201E-13  0.3304E+01
   0.690  0.3206E-18  0.3304E+01
   0.700  0.2679E-24  0.3304E+01
   0.710  0.1139E-20  0.3304E+01
   0.720  0.4282E-15  0.3304E+01
   0.730  0.2179E-10  0.3304E+01
   0.740  0.1501E-06  0.3304E+01
   0.750  0.1399E-03  0.3304E+01
   0.760  0.1765E-01  0.3305E+01
   0.770  0.3013E+00  0.3308E+01
   0.780  0.6962E+00  0.3314E+01
   0.790  0.2177E+00  0.3317E+01
   0.800  0.9213E-02  0.3317E+01
   0.810  0.5369E-04  0.3317E+01
   0.820  0.5349E-03  0.3317E+01
   0.830  0.4179E-01  0.3317E+01
   0.840  0.4419E+00  0.3322E+01
   0.850  0.6323E+00  0.3328E+01
   0.860  0.1225E+00  0.3329E+01
   0.870  0.3210E-02  0.3329E+01
   0.880  0.1139E-04  0.3329E+01
   0.890  0.5466E-08  0.3329E+01
   0.900  0.3553E-12  0.3329E+01
   0.910  0.1254E-10  0.3329E+01
   0.920  0.9660E-07  0.3329E+01
   0.930  0.1007E-03  0.3329E+01
   0.940  0.1420E-01  0.3329E+01
   0.950  0.2711E+00  0.3332E+01
   0.960  0.7004E+00  0.3339E+01
   0.970  0.2449E+00  0.3341E+01
   0.980  0.1159E-01  0.3342E+01
   0.990  0.7421E-04  0.3342E+01
   1.000  0.6432E-07  0.3342E+01
   1.010  0.7544E-11  0.3342E+01
   1.020  0.1309E-10  0.3342E+01
   1.030  0.9995E-07  0.3342E+01
   1.040  0.1033E-03  0.3342E+01
   1.050  0.1444E-01  0.3342E+01
   1.060  0.2734E+00  0.3344E+01
   1.070  0.7002E+00  0.3351E+01
   1.080  0.2427E+00  0.3354E+01
   1.090  0.1139E-01  0.3354E+01
   1.100  0.7230E-04  0.3354E+01
   1.110  0.1440E-05  0.3354E+01
   1.120  0.7137E-03  0.3354E+01
   1.130  0.5001E-01  0.3355E+01
   1.140  0.4743E+00  0.3359E+01
   1.150  0.6088E+00  0.3365E+01
   1.160  0.1058E+00  0.3366E+01
   1.170  0.2486E-02  0.3366E+01
   1.180  0.7910E-05  0.3366E+01
   1.190  0.3406E-08  0.3366E+01
   1.200  0.1985E-12  0.3366E+01
   1.210  0.1565E-17  0.3366E+01
   1.220  0.3886E-23  0.3366E+01
   1.230  0.1997E-17  0.3366E+01
   1.240  0.2438E-12  0.3366E+01
   1.250  0.4026E-08  0.3366E+01
   1.260  0.8999E-05  0.3366E+01
   1.270  0.2722E-02  0.3366E+01
   1.280  0.1114E+00  0.3368E+01
   1.290  0.6174E+00  0.3374E+01
   1.300  0.4629E+00  0.3378E+01
   1.310  0.4717E-01  0.3379E+01
   1.320  0.2259E-01  0.3379E+01
   1.330  0.3339E+00  0.3382E+01
   1.340  0.6875E+00  0.3389E+01
   1.350  0.1916E+00  0.3391E+01
   1.360  0.7224E-02  0.3391E+01
   1.370  0.3687E-04  0.3391E+01
   1.380  0.2547E-07  0.3391E+01
   1.390  0.2381E-11  0.3391E+01
   1.400  0.3012E-16  0.3391E+01
   1.410  0.5157E-22  0.3391E+01
   1.420  0.1195E-28  0.3391E+01
   1.430  0.1199E-33  0.3391E+01
   1.440  0.2005E-26  0.3391E+01
   1.450  0.4553E-20  0.3391E+01
   1.460  0.1399E-14  0.3391E+01
   1.470  0.5820E-10  0.3391E+01
   1.480  0.3276E-06  0.3391E+01
   1.490  0.2496E-03  0.3391E+01
   1.500  0.2573E-01  0.3392E+01
   1.510  0.3596E+00  0.3395E+01
   1.520  0.7205E+00  0.3402E+01
   1.530  0.6183E+00  0.3409E+01
   1.540  0.6362E+00  0.3415E+01
   1.550  0.1208E+00  0.3416E+01
   1.560  0.3133E-02  0.3416E+01
   1.570  0.1100E-04  0.3416E+01
   1.580  0.5225E-08  0.3416E+01
   1.590  0.3359E-12  0.3416E+01
   1.600  0.2923E-17  0.3416E+01
   1.610  0.1281E-16  0.3416E+01
   1.620  0.1243E-11  0.3416E+01
   1.630  0.1654E-07  0.3416E+01
   1.640  0.3024E-04  0.3416E+01
   1.650  0.7622E-02  0.3416E+01
   1.660  0.2656E+00  0.3419E+01
   1.670  0.1308E+01  0.3432E+01
   1.680  0.1332E+01  0.3445E+01
   1.690  0.1373E+01  0.3459E+01
   1.700  0.6411E+00  0.3465E+01
   1.710  0.3020E+00  0.3468E+01
   1.720  0.8722E+00  0.3477E+01
   1.730  0.1287E+01  0.3490E+01
   1.740  0.1767E+01  0.3508E+01
   1.750  0.1480E+01  0.3523E+01
   1.760  0.1819E+01  0.3541E+01
   1.770  0.1059E+01  0.3551E+01
   1.780  0.6256E+00  0.3558E+01
   1.790  0.1398E+01  0.3572E+01
   1.800  0.5792E+00  0.3577E+01
   1.810  0.5095E-01  0.3578E+01
   1.820  0.3044E+00  0.3581E+01
   1.830  0.6957E+00  0.3588E+01
   1.840  0.2282E+00  0.3590E+01
   1.850  0.2664E+00  0.3593E+01
   1.860  0.7009E+00  0.3600E+01
   1.870  0.2583E+00  0.3602E+01
   1.880  0.1556E-01  0.3603E+01
   1.890  0.1104E+00  0.3604E+01
   1.900  0.6158E+00  0.3610E+01
   1.910  0.4651E+00  0.3614E+01
   1.920  0.4848E-01  0.3615E+01
   1.930  0.7014E-01  0.3616E+01
   1.940  0.7881E+00  0.3623E+01
   1.950  0.1882E+01  0.3642E+01
   1.960  0.2582E+01  0.3668E+01
   1.970  0.1825E+01  0.3686E+01
   1.980  0.5925E+00  0.3692E+01
   1.990  0.1084E+01  0.3703E+01
   2.000  0.1219E+01  0.3715E+01
   2.010  0.8866E+00  0.3724E+01
   2.020  0.2412E+00  0.3727E+01
   2.030  0.1075E-01  0.3727E+01
   2.040  0.6030E-02  0.3727E+01
   2.050  0.1728E+00  0.3728E+01
   2.060  0.6786E+00  0.3735E+01
   2.070  0.4337E+00  0.3740E+01
   2.080  0.8714E+00  0.3748E+01
   2.090  0.1472E+01  0.3763E+01
   2.100  0.9516E+00  0.3773E+01
   2.110  0.3582E+00  0.3776E+01
   2.120  0.2509E-01  0.3776E+01
   2.130  0.4777E-01  0.3777E+01
   2.140  0.4668E+00  0.3782E+01
   2.150  0.7000E+00  0.3789E+01
   2.160  0.6798E+00  0.3795E+01
   2.170  0.5305E+00  0.3801E+01
   2.180  0.3522E+00  0.3804E+01
   2.190  0.1752E+01  0.3822E+01
   2.200  0.1499E+01  0.3837E+01
   2.210  0.1796E+00  0.3838E+01
   2.220  0.3476E-02  0.3839E+01
   2.230  0.6636E-01  0.3839E+01
   2.240  0.1337E+01  0.3853E+01
   2.250  0.4521E+01  0.3898E+01
   2.260  0.4377E+01  0.3942E+01
   2.270  0.3203E+01  0.3974E+01
   2.280  0.2175E+01  0.3995E+01
   2.290  0.1782E+01  0.4013E+01
   2.300  0.1687E+01  0.4030E+01
   2.310  0.2317E+01  0.4053E+01
   2.320  0.2124E+01  0.4074E+01
   2.330  0.1998E+01  0.4094E+01
   2.340  0.1015E+01  0.4105E+01
   2.350  0.1457E+01  0.4119E+01
   2.360  0.1153E+01  0.4131E+01
   2.370  0.2058E+01  0.4151E+01
   2.380  0.1655E+01  0.4168E+01
   2.390  0.1317E+01  0.4181E+01
   2.400  0.1434E+01  0.4195E+01
   2.410  0.7109E+00  0.4202E+01
   2.420  0.1795E+01  0.4220E+01
   2.430  0.1828E+01  0.4239E+01
   2.440  0.1101E+01  0.4250E+01
   2.450  0.1879E+01  0.4268E+01
   2.460  0.1572E+01  0.4284E+01
   2.470  0.6773E+00  0.4291E+01
   2.480  0.1742E+01  0.4308E+01
   2.490  0.1473E+01  0.4323E+01
   2.500  0.9022E+00  0.4332E+01
   2.510  0.1114E+01  0.4343E+01
   2.520  0.1369E+01  0.4357E+01
   2.530  0.3369E+00  0.4360E+01
   2.540  0.3365E+00  0.4364E+01
   2.550  0.1351E+01  0.4377E+01
   2.560  0.9600E+00  0.4387E+01
   2.570  0.8126E+00  0.4395E+01
   2.580  0.1088E+01  0.4406E+01
   2.590  0.1362E+01  0.4419E+01
   2.600  0.5974E+00  0.4425E+01
   2.610  0.8770E+00  0.4434E+01
   2.620  0.1371E+01  0.4448E+01
   2.630  0.1138E+01  0.4459E+01
   2.640  0.1252E+01  0.4472E+01
   2.650  0.2706E+01  0.4499E+01
   2.660  0.2504E+01  0.4524E+01
   2.670  0.9635E+00  0.4533E+01
   2.680  0.8457E-01  0.4534E+01
   2.690  0.3784E+00  0.4538E+01
   2.700  0.1543E+01  0.4554E+01
   2.710  0.1361E+01  0.4567E+01
   2.720  0.4199E+00  0.4571E+01
   2.730  0.4205E+00  0.4576E+01
   2.740  0.1380E+01  0.4589E+01
   2.750  0.6532E+00  0.4596E+01
   2.760  0.5517E-01  0.4596E+01
   2.770  0.3673E+00  0.4600E+01
   2.780  0.1368E+01  0.4614E+01
   2.790  0.7466E+00  0.4621E+01
   2.800  0.5551E+00  0.4627E+01
   2.810  0.9035E+00  0.4636E+01
   2.820  0.1520E+01  0.4651E+01
   2.830  0.1623E+01  0.4667E+01
   2.840  0.1321E+01  0.4680E+01
   2.850  0.8614E+00  0.4689E+01
   2.860  0.2500E+01  0.4714E+01
   2.870  0.2467E+01  0.4739E+01
   2.880  0.6332E+00  0.4745E+01
   2.890  0.2415E+00  0.4747E+01
   2.900  0.1215E+01  0.4760E+01
   2.910  0.9530E+00  0.4769E+01
   2.920  0.1054E+00  0.4770E+01
   2.930  0.1919E+00  0.4772E+01
   2.940  0.1182E+01  0.4784E+01
   2.950  0.9998E+00  0.4794E+01
   2.960  0.3037E+00  0.4797E+01
   2.970  0.8944E+00  0.4806E+01
   2.980  0.1553E+01  0.4821E+01
   2.990  0.9827E+00  0.4831E+01
   3.000  0.2337E+00  0.4834E+01
   3.010  0.9415E+00  0.4843E+01
   3.020  0.2058E+01  0.4864E+01
   3.030  0.1543E+01  0.4879E+01
   3.040  0.3089E+00  0.4882E+01
   3.050  0.5252E+00  0.4887E+01
   3.060  0.1524E+01  0.4903E+01
   3.070  0.1335E+01  0.4916E+01
   3.080  0.1328E+01  0.4929E+01
   3.090  0.1834E+01  0.4948E+01
   3.100  0.1824E+01  0.4966E+01
   3.110  0.3299E+00  0.4969E+01
   3.120  0.5411E+00  0.4975E+01
   3.130  0.1518E+01  0.4990E+01
   3.140  0.1138E+01  0.5001E+01
   3.150  0.8558E+00  0.5010E+01
   3.160  0.1558E+01  0.5025E+01
   3.170  0.1356E+01  0.5039E+01
   3.180  0.9176E+00  0.5048E+01
   3.190  0.1434E+01  0.5062E+01
   3.200  0.6611E+00  0.5069E+01
   3.210  0.9820E+00  0.5079E+01
   3.220  0.1674E+01  0.5096E+01
   3.230  0.1490E+01  0.5110E+01
   3.240  0.1596E+01  0.5126E+01
   3.250  0.1159E+01  0.5138E+01
   3.260  0.1617E+01  0.5154E+01
   3.270  0.1837E+01  0.5173E+01
   3.280  0.3230E+01  0.5205E+01
   3.290  0.5704E+01  0.5262E+01
   3.300  0.4549E+01  0.5307E+01
   3.310  0.3435E+01  0.5342E+01
   3.320  0.3294E+01  0.5375E+01
   3.330  0.2402E+01  0.5399E+01
   3.340  0.1666E+01  0.5415E+01
   3.350  0.1255E+01  0.5428E+01
   3.360  0.1150E+01  0.5439E+01
   3.370  0.4428E+00  0.5444E+01
   3.380  0.1302E+01  0.5457E+01
   3.390  0.8331E+00  0.5465E+01
   3.400  0.2207E+00  0.5467E+01
   3.410  0.1182E+01  0.5479E+01
   3.420  0.1678E+01  0.5496E+01
   3.430  0.6636E+00  0.5503E+01
   3.440  0.3798E+00  0.5506E+01
   3.450  0.1338E+01  0.5520E+01
   3.460  0.7674E+00  0.5527E+01
   3.470  0.2526E+00  0.5530E+01
   3.480  0.9248E+00  0.5539E+01
   3.490  0.2041E+01  0.5560E+01
   3.500  0.2117E+01  0.5581E+01
   3.510  0.8205E+00  0.5589E+01
   3.520  0.1241E+00  0.5590E+01
   3.530  0.5328E+00  0.5596E+01
   3.540  0.2111E+01  0.5617E+01
   3.550  0.1682E+01  0.5633E+01
   3.560  0.5708E+00  0.5639E+01
   3.570  0.6261E-01  0.5640E+01
   3.580  0.2761E+00  0.5643E+01
   3.590  0.1304E+01  0.5656E+01
   3.600  0.9884E+00  0.5666E+01
   3.610  0.7399E+00  0.5673E+01
   3.620  0.3818E+00  0.5677E+01
   3.630  0.6633E-01  0.5677E+01
   3.640  0.6899E+00  0.5684E+01
   3.650  0.1977E+01  0.5704E+01
   3.660  0.1149E+01  0.5716E+01
   3.670  0.1079E+01  0.5726E+01
   3.680  0.1042E+01  0.5737E+01
   3.690  0.2513E+00  0.5739E+01
   3.700  0.4897E+00  0.5744E+01
   3.710  0.1456E+01  0.5759E+01
   3.720  0.1047E+01  0.5769E+01
   3.730  0.6222E+00  0.5775E+01
   3.740  0.9794E-01  0.5776E+01
   3.750  0.9990E-01  0.5777E+01
   3.760  0.9912E+00  0.5787E+01
   3.770  0.2373E+01  0.5811E+01
   3.780  0.2388E+01  0.5835E+01
   3.790  0.1748E+01  0.5852E+01
   3.800  0.1855E+01  0.5871E+01
   3.810  0.1248E+01  0.5883E+01
   3.820  0.4480E+00  0.5888E+01
   3.830  0.2836E+00  0.5891E+01
   3.840  0.1693E+01  0.5908E+01
   3.850  0.2804E+01  0.5936E+01
   3.860  0.2184E+01  0.5958E+01
   3.870  0.4984E+00  0.5963E+01
   3.880  0.2011E-01  0.5963E+01
   3.890  0.6618E-01  0.5963E+01
   3.900  0.5605E+00  0.5969E+01
   3.910  0.1415E+01  0.5983E+01
   3.920  0.2996E+01  0.6013E+01
   3.930  0.1913E+01  0.6032E+01
   3.940  0.5534E+00  0.6038E+01
   3.950  0.5975E+00  0.6044E+01
   3.960  0.5275E+00  0.6049E+01
   3.970  0.1415E+00  0.6050E+01
   3.980  0.5721E+00  0.6056E+01
   3.990  0.1193E+01  0.6068E+01
   4.000  0.3378E+01  0.6102E+01
   4.010  0.3421E+01  0.6136E+01
   4.020  0.1252E+01  0.6149E+01
   4.030  0.8050E+00  0.6157E+01
   4.040  0.9744E+00  0.6166E+01
   4.050  0.1593E+01  0.6182E+01
   4.060  0.2078E+01  0.6203E+01
   4.070  0.9605E+00  0.6213E+01
   4.080  0.1555E+01  0.6228E+01
   4.090  0.1713E+01  0.6245E+01
   4.100  0.3115E+00  0.6249E+01
   4.110  0.2860E+00  0.6251E+01
   4.120  0.6998E+00  0.6258E+01
   4.130  0.2402E+00  0.6261E+01
   4.140  0.9945E-01  0.6262E+01
   4.150  0.5972E+00  0.6268E+01
   4.160  0.1042E+01  0.6278E+01
   4.170  0.2234E+01  0.6300E+01
   4.180  0.1751E+01  0.6318E+01
   4.190  0.6095E+00  0.6324E+01
   4.200  0.7772E+00  0.6332E+01
   4.210  0.1008E+01  0.6342E+01
   4.220  0.5308E+00  0.6347E+01
   4.230  0.7012E-01  0.6348E+01
   4.240  0.3177E+00  0.6351E+01
   4.250  0.1365E+01  0.6365E+01
   4.260  0.2003E+01  0.6385E+01
   4.270  0.1165E+01  0.6396E+01
   4.280  0.5200E+00  0.6402E+01
   4.290  0.1143E+01  0.6413E+01
   4.300  0.8060E+00  0.6421E+01
   4.310  0.2479E+00  0.6424E+01
   4.320  0.6437E+00  0.6430E+01
   4.330  0.5375E+00  0.6435E+01
   4.340  0.6685E+00  0.6442E+01
   4.350  0.9503E+00  0.6452E+01
   4.360  0.1450E+01  0.6466E+01
   4.370  0.5617E+00  0.6472E+01
   4.380  0.1041E+00  0.6473E+01
   4.390  0.8295E+00  0.6481E+01
   4.400  0.1920E+01  0.6500E+01
   4.410  0.1243E+01  0.6513E+01
   4.420  0.8421E+00  0.6521E+01
   4.430  0.7720E+00  0.6529E+01
   4.440  0.5034E+00  0.6534E+01
   4.450  0.5482E+00  0.6539E+01
   4.460  0.1404E+01  0.6553E+01
   4.470  0.6290E+00  0.6560E+01
   4.480  0.6637E+00  0.6566E+01
   4.490  0.9548E+00  0.6576E+01
   4.500  0.6790E+00  0.6583E+01
   4.510  0.1787E+00  0.6584E+01
   4.520  0.5222E+00  0.6590E+01
   4.530  0.6204E+00  0.6596E+01
   4.540  0.5609E+00  0.6602E+01
   4.550  0.9017E+00  0.6611E+01
   4.560  0.2157E+01  0.6632E+01
   4.570  0.2689E+01  0.6659E+01
   4.580  0.1042E+01  0.6669E+01
   4.590  0.1370E+00  0.6671E+01
   4.600  0.3811E-01  0.6671E+01
   4.610  0.6046E+00  0.6677E+01
   4.620  0.1666E+01  0.6694E+01
   4.630  0.1243E+01  0.6706E+01
   4.640  0.8873E+00  0.6715E+01
   4.650  0.9917E+00  0.6725E+01
   4.660  0.1186E+01  0.6737E+01
   4.670  0.1600E+01  0.6753E+01
   4.680  0.1098E+01  0.6764E+01
   4.690  0.6379E+00  0.6770E+01
   4.700  0.9568E+00  0.6780E+01
   4.710  0.1919E+01  0.6799E+01
   4.720  0.8647E+00  0.6808E+01
   4.730  0.7919E+00  0.6816E+01
   4.740  0.1561E+01  0.6831E+01
   4.750  0.1537E+01  0.6847E+01
   4.760  0.9306E+00  0.6856E+01
   4.770  0.6746E+00  0.6863E+01
   4.780  0.1481E+01  0.6877E+01
   4.790  0.1089E+01  0.6888E+01
   4.800  0.9807E+00  0.6898E+01
   4.810  0.7235E+00  0.6905E+01
   4.820  0.1768E+00  0.6907E+01
   4.830  0.4244E+00  0.6911E+01
   4.840  0.6461E+00  0.6918E+01
   4.850  0.1344E+00  0.6919E+01
   4.860  0.3823E-02  0.6919E+01
   4.870  0.9617E-02  0.6919E+01
   4.880  0.3124E+00  0.6922E+01
   4.890  0.1499E+01  0.6937E+01
   4.900  0.1455E+01  0.6952E+01
   4.910  0.4242E+00  0.6956E+01
   4.920  0.9631E-01  0.6957E+01
   4.930  0.5351E+00  0.6963E+01
   4.940  0.5566E+00  0.6968E+01
   4.950  0.7838E-01  0.6969E+01
   4.960  0.1495E-02  0.6969E+01
   4.970  0.8358E-03  0.6969E+01
   4.980  0.5584E-01  0.6970E+01
   4.990  0.5676E+00  0.6975E+01
   5.000  0.1446E+01  0.6990E+01
   5.010  0.1384E+01  0.7003E+01
   5.020  0.2951E+00  0.7006E+01
   5.030  0.5586E+00  0.7012E+01
   5.040  0.1397E+01  0.7026E+01
   5.050  0.4835E+00  0.7031E+01
   5.060  0.2299E-01  0.7031E+01
   5.070  0.1886E-01  0.7031E+01
   5.080  0.3100E+00  0.7034E+01
   5.090  0.7100E+00  0.7041E+01
   5.100  0.5002E+00  0.7046E+01
   5.110  0.9283E+00  0.7056E+01
   5.120  0.1464E+01  0.7070E+01
   5.130  0.9410E+00  0.7080E+01
   5.140  0.9523E-01  0.7081E+01
   5.150  0.1379E-02  0.7081E+01
   5.160  0.1029E-01  0.7081E+01
   5.170  0.2305E+00  0.7083E+01
   5.180  0.6988E+00  0.7090E+01
   5.190  0.2867E+00  0.7093E+01
   5.200  0.1593E-01  0.7093E+01
   5.210  0.2104E-02  0.7093E+01
   5.220  0.1056E+00  0.7094E+01
   5.230  0.9729E+00  0.7104E+01
   5.240  0.1885E+01  0.7123E+01
   5.250  0.7311E+00  0.7130E+01
   5.260  0.3472E+00  0.7134E+01
   5.270  0.1363E+01  0.7147E+01
   5.280  0.1631E+01  0.7164E+01
   5.290  0.4002E+00  0.7168E+01
   5.300  0.1488E-01  0.7168E+01
   5.310  0.7659E-04  0.7168E+01
   5.320  0.1297E-05  0.7168E+01
   5.330  0.8079E-03  0.7168E+01
   5.340  0.7555E-01  0.7168E+01
   5.350  0.1026E+01  0.7179E+01
   5.360  0.2025E+01  0.7199E+01
   5.370  0.5757E+00  0.7205E+01
   5.380  0.2323E-01  0.7205E+01
   5.390  0.1950E-03  0.7205E+01
   5.400  0.1046E-01  0.7205E+01
   5.410  0.2326E+00  0.7207E+01
   5.420  0.7219E+00  0.7215E+01
   5.430  0.7704E+00  0.7222E+01
   5.440  0.1416E+01  0.7236E+01
   5.450  0.5474E+00  0.7242E+01
   5.460  0.1086E+00  0.7243E+01
   5.470  0.8674E+00  0.7252E+01
   5.480  0.1276E+01  0.7264E+01
   5.490  0.2979E+00  0.7267E+01
   5.500  0.4693E+00  0.7272E+01
   5.510  0.8726E+00  0.7281E+01
   5.520  0.8182E+00  0.7289E+01
   5.530  0.2726E+00  0.7292E+01
   5.540  0.1405E-01  0.7292E+01
   5.550  0.9899E-04  0.7292E+01
   5.560  0.5184E-04  0.7292E+01
   5.570  0.1406E-01  0.7292E+01
   5.580  0.5388E+00  0.7297E+01
   5.590  0.2969E+01  0.7327E+01
   5.600  0.2397E+01  0.7351E+01
   5.610  0.2867E+00  0.7354E+01
   5.620  0.5061E-02  0.7354E+01
   5.630  0.1356E-04  0.7354E+01
   5.640  0.3723E-03  0.7354E+01
   5.650  0.3325E-01  0.7354E+01
   5.660  0.4018E+00  0.7358E+01
   5.670  0.6571E+00  0.7365E+01
   5.680  0.1481E+00  0.7366E+01
   5.690  0.1513E+00  0.7368E+01
   5.700  0.1124E+01  0.7379E+01
   5.710  0.1510E+01  0.7394E+01
   5.720  0.1005E+01  0.7404E+01
   5.730  0.1349E+01  0.7418E+01
   5.740  0.1035E+01  0.7428E+01
   5.750  0.6307E+00  0.7434E+01
   5.760  0.5665E+00  0.7440E+01
   5.770  0.8305E-01  0.7441E+01
   5.780  0.6106E-01  0.7442E+01
   5.790  0.5165E+00  0.7447E+01
   5.800  0.9073E+00  0.7456E+01
   5.810  0.1432E+01  0.7470E+01
   5.820  0.7528E+00  0.7478E+01
   5.830  0.6199E-01  0.7478E+01
   5.840  0.1697E+00  0.7480E+01
   5.850  0.9131E+00  0.7489E+01
   5.860  0.1083E+01  0.7500E+01
   5.870  0.3003E+00  0.7503E+01
   5.880  0.6455E-01  0.7504E+01
   5.890  0.7313E+00  0.7511E+01
   5.900  0.2299E+01  0.7534E+01
   5.910  0.2332E+01  0.7557E+01
   5.920  0.7520E+00  0.7565E+01
   5.930  0.5971E-01  0.7565E+01
   5.940  0.2702E+00  0.7568E+01
   5.950  0.7157E+00  0.7575E+01
   5.960  0.5267E+00  0.7580E+01
   5.970  0.7201E+00  0.7588E+01
   5.980  0.4716E+00  0.7592E+01
   5.990  0.1212E+01  0.7605E+01
   6.000  0.1790E+01  0.7622E+01
   6.010  0.1136E+01  0.7634E+01
   6.020  0.9725E+00  0.7644E+01
   6.030  0.7384E+00  0.7651E+01
   6.040  0.4712E+00  0.7656E+01
   6.050  0.1341E+01  0.7669E+01
   6.060  0.1775E+01  0.7687E+01
   6.070  0.1592E+01  0.7703E+01
   6.080  0.1539E+01  0.7718E+01
   6.090  0.8556E+00  0.7727E+01
   6.100  0.9706E+00  0.7736E+01
   6.110  0.1315E+01  0.7749E+01
   6.120  0.1523E+01  0.7765E+01
   6.130  0.2749E+01  0.7792E+01
   6.140  0.2056E+01  0.7813E+01
   6.150  0.1979E+01  0.7833E+01
   6.160  0.3472E+01  0.7867E+01
   6.170  0.5621E+01  0.7923E+01
   6.180  0.5919E+01  0.7983E+01
   6.190  0.1661E+01  0.7999E+01
   6.200  0.7145E-01  0.8000E+01
   6.210  0.4276E-03  0.8000E+01
   6.220  0.3501E-06  0.8000E+01
   6.230  0.3900E-10  0.8000E+01
   6.240  0.5899E-15  0.8000E+01
   6.250  0.1211E-20  0.8000E+01
   6.260  0.3369E-27  0.8000E+01
   6.270  0.1270E-34  0.8000E+01
   6.280  0.6489E-43  0.8000E+01
   6.290  0.4490E-52  0.8000E+01
   6.300  0.4207E-62  0.8000E+01
   6.310  0.5337E-73  0.8000E+01
   6.320  0.1647E-83  0.8000E+01
   6.330  0.1562E-83  0.8000E+01
   6.340  0.1562E-83  0.8000E+01
   6.350  0.1562E-83  0.8000E+01
   6.360  0.1562E-83  0.8000E+01
   6.370  0.1562E-83  0.8000E+01
   6.380  0.1562E-83  0.8000E+01
   6.390  0.1562E-83  0.8000E+01
   6.400  0.1562E-83  0.8000E+01
   6.410  0.1562E-83  0.8000E+01
   6.420  0.1562E-83  0.8000E+01
   6.430  0.1562E-83  0.8000E+01
   6.440  0.1562E-83  0.8000E+01
   6.450  0.1562E-83  0.8000E+01
   6.460  0.1562E-83  0.8000E+01
   6.470  0.1562E-83  0.8000E+01
   6.480  0.1562E-83  0.8000E+01
   6.490  0.1562E-83  0.8000E+01
   6.500  0.5778E-82  0.8000E+01
   6.510  0.1813E-70  0.8000E+01
   6.520  0.7918E-60  0.8000E+01
   6.530  0.4686E-50  0.8000E+01
   6.540  0.3759E-41  0.8000E+01
   6.550  0.4093E-33  0.8000E+01
   6.560  0.6055E-26  0.8000E+01
   6.570  0.1220E-19  0.8000E+01
   6.580  0.3362E-14  0.8000E+01
   6.590  0.1273E-09  0.8000E+01
   6.600  0.6693E-06  0.8000E+01
   6.610  0.4957E-03  0.8000E+01
   6.620  0.5305E-01  0.8001E+01
   6.630  0.8617E+00  0.8009E+01
   6.640  0.2476E+01  0.8034E+01
   6.650  0.2165E+01  0.8056E+01
   6.660  0.1458E+01  0.8070E+01
   6.670  0.1261E+01  0.8083E+01
   6.680  0.9769E+00  0.8093E+01
   6.690  0.9733E+00  0.8102E+01
   6.700  0.8753E+00  0.8111E+01
   6.710  0.7908E+00  0.8119E+01
   6.720  0.6762E+00  0.8126E+01
   6.730  0.7652E+00  0.8133E+01
   6.740  0.7020E+00  0.8140E+01
   6.750  0.7100E+00  0.8147E+01
   6.760  0.6135E+00  0.8154E+01
   6.770  0.2423E+01  0.8178E+01
   6.780  0.3047E+01  0.8208E+01
   6.790  0.2331E+01  0.8232E+01
   6.800  0.1321E+01  0.8245E+01
   6.810  0.1584E+01  0.8261E+01
   6.820  0.1244E+01  0.8273E+01
   6.830  0.1990E+01  0.8293E+01
   6.840  0.1564E+01  0.8309E+01
   6.850  0.2257E+00  0.8311E+01
   6.860  0.6643E+00  0.8318E+01
   6.870  0.1949E+01  0.8337E+01
   6.880  0.1520E+01  0.8352E+01
   6.890  0.7213E+00  0.8359E+01
   6.900  0.5257E+00  0.8365E+01
   6.910  0.1393E+01  0.8379E+01
   6.920  0.6319E+00  0.8385E+01
   6.930  0.4643E+00  0.8390E+01
   6.940  0.1373E+01  0.8403E+01
   6.950  0.1227E+01  0.8416E+01
   6.960  0.1444E+01  0.8430E+01
   6.970  0.4564E+00  0.8435E+01
   6.980  0.2143E-01  0.8435E+01
   6.990  0.8342E-01  0.8436E+01
   7.000  0.9395E+00  0.8445E+01
   7.010  0.2410E+01  0.8469E+01
   7.020  0.1392E+01  0.8483E+01
   7.030  0.1405E+00  0.8484E+01
   7.040  0.2143E-02  0.8484E+01
   7.050  0.6590E-02  0.8485E+01
   7.060  0.2741E+00  0.8487E+01
   7.070  0.1706E+01  0.8504E+01
   7.080  0.1812E+01  0.8522E+01
   7.090  0.9058E+00  0.8532E+01
   7.100  0.2530E+00  0.8534E+01
   7.110  0.1204E-01  0.8534E+01
   7.120  0.1085E-01  0.8534E+01
   7.130  0.3829E+00  0.8538E+01
   7.140  0.1893E+01  0.8557E+01
   7.150  0.1311E+01  0.8570E+01
   7.160  0.1654E+00  0.8572E+01
   7.170  0.4267E+00  0.8576E+01
   7.180  0.6434E+00  0.8583E+01
   7.190  0.1348E+00  0.8584E+01
   7.200  0.1665E+00  0.8586E+01
   7.210  0.1319E+01  0.8599E+01
   7.220  0.1771E+01  0.8616E+01
   7.230  0.4491E+00  0.8621E+01
   7.240  0.2095E-01  0.8621E+01
   7.250  0.5224E-02  0.8621E+01
   7.260  0.1868E+00  0.8623E+01
   7.270  0.1087E+01  0.8634E+01
   7.280  0.1352E+01  0.8647E+01
   7.290  0.1678E+01  0.8664E+01
   7.300  0.1473E+01  0.8679E+01
   7.310  0.4071E+00  0.8683E+01
   7.320  0.1138E+00  0.8684E+01
   7.330  0.5843E+00  0.8690E+01
   7.340  0.6257E+00  0.8696E+01
   7.350  0.6902E+00  0.8703E+01
   7.360  0.6702E+00  0.8710E+01
   7.370  0.1719E+01  0.8727E+01
   7.380  0.2144E+01  0.8748E+01
   7.390  0.8626E+00  0.8757E+01
   7.400  0.5248E+00  0.8762E+01
   7.410  0.6487E+00  0.8769E+01
   7.420  0.2276E+00  0.8771E+01
   7.430  0.5940E+00  0.8777E+01
   7.440  0.5109E+00  0.8782E+01
   7.450  0.4274E+00  0.8786E+01
   7.460  0.1474E+01  0.8801E+01
   7.470  0.1330E+01  0.8814E+01
   7.480  0.9950E+00  0.8824E+01
   7.490  0.1252E+01  0.8837E+01
   7.500  0.7122E+00  0.8844E+01
   7.510  0.3715E+00  0.8848E+01
   7.520  0.6994E+00  0.8855E+01
   7.530  0.2341E+00  0.8857E+01
   7.540  0.2955E+00  0.8860E+01
   7.550  0.1392E+01  0.8874E+01
   7.560  0.1385E+01  0.8888E+01
   7.570  0.5900E+00  0.8894E+01
   7.580  0.9943E-01  0.8895E+01
   7.590  0.4608E+00  0.8899E+01
   7.600  0.1394E+01  0.8913E+01
   7.610  0.1486E+01  0.8928E+01
   7.620  0.3416E+00  0.8932E+01
   7.630  0.7366E-01  0.8932E+01
   7.640  0.8075E+00  0.8940E+01
   7.650  0.1710E+01  0.8957E+01
   7.660  0.9743E+00  0.8967E+01
   7.670  0.1675E+00  0.8969E+01
   7.680  0.1076E-01  0.8969E+01
   7.690  0.1711E+00  0.8971E+01
   7.700  0.7955E+00  0.8979E+01
   7.710  0.9982E+00  0.8989E+01
   7.720  0.5405E+00  0.8994E+01
   7.730  0.6697E+00  0.9001E+01
   7.740  0.1622E+01  0.9017E+01
   7.750  0.1959E+01  0.9037E+01
   7.760  0.6477E+00  0.9043E+01
   7.770  0.4338E-01  0.9043E+01
   7.780  0.2193E-01  0.9044E+01
   7.790  0.3304E+00  0.9047E+01
   7.800  0.6886E+00  0.9054E+01
   7.810  0.1942E+00  0.9056E+01
   7.820  0.1539E-01  0.9056E+01
   7.830  0.2552E+00  0.9059E+01
   7.840  0.1648E+01  0.9075E+01
   7.850  0.2410E+01  0.9099E+01
   7.860  0.8197E+00  0.9107E+01
   7.870  0.7112E+00  0.9114E+01
   7.880  0.3598E+00  0.9118E+01
   7.890  0.3646E+00  0.9122E+01
   7.900  0.6848E+00  0.9129E+01
   7.910  0.1853E+00  0.9130E+01
   7.920  0.7593E-02  0.9130E+01
   7.930  0.5747E-01  0.9131E+01
   7.940  0.6738E+00  0.9138E+01
   7.950  0.1776E+01  0.9156E+01
   7.960  0.1112E+01  0.9167E+01
   7.970  0.3719E+00  0.9170E+01
   7.980  0.7117E+00  0.9177E+01
   7.990  0.4780E+00  0.9182E+01
   8.000  0.7703E+00  0.9190E+01
   8.010  0.8152E+00  0.9198E+01
   8.020  0.6003E+00  0.9204E+01
   8.030  0.2374E+00  0.9206E+01
   8.040  0.6699E+00  0.9213E+01
   8.050  0.6703E+00  0.9220E+01
   8.060  0.1330E+01  0.9233E+01
   8.070  0.8317E+00  0.9242E+01
   8.080  0.7325E-01  0.9242E+01
   8.090  0.6941E-01  0.9243E+01
   8.100  0.5326E+00  0.9248E+01
   8.110  0.5916E+00  0.9254E+01
   8.120  0.5083E+00  0.9259E+01
   8.130  0.1064E+01  0.9270E+01
   8.140  0.8067E+00  0.9278E+01
   8.150  0.1847E+00  0.9280E+01
   8.160  0.5768E+00  0.9286E+01
   8.170  0.1835E+01  0.9304E+01
   8.180  0.1161E+01  0.9316E+01
   8.190  0.1306E+00  0.9317E+01
   8.200  0.2112E+00  0.9319E+01
   8.210  0.7069E+00  0.9326E+01
   8.220  0.5699E+00  0.9332E+01
   8.230  0.7209E+00  0.9339E+01
   8.240  0.3312E+00  0.9342E+01
   8.250  0.7445E+00  0.9350E+01
   8.260  0.1277E+01  0.9362E+01
   8.270  0.8528E+00  0.9371E+01
   8.280  0.2166E+01  0.9393E+01
   8.290  0.2568E+01  0.9418E+01
   8.300  0.1455E+01  0.9433E+01
   8.310  0.2210E+01  0.9455E+01
   8.320  0.2400E+01  0.9479E+01
   8.330  0.1433E+01  0.9493E+01
   8.340  0.1104E+01  0.9504E+01
   8.350  0.1087E+01  0.9515E+01
   8.360  0.1425E+01  0.9529E+01
   8.370  0.9694E+00  0.9539E+01
   8.380  0.1276E+00  0.9540E+01
   8.390  0.3131E+00  0.9544E+01
   8.400  0.2078E+01  0.9564E+01
   8.410  0.2595E+01  0.9590E+01
   8.420  0.2334E+01  0.9614E+01
   8.430  0.1890E+01  0.9633E+01
   8.440  0.1422E+01  0.9647E+01
   8.450  0.5099E+00  0.9652E+01
   8.460  0.6953E-01  0.9653E+01
   8.470  0.6106E+00  0.9659E+01
   8.480  0.1472E+01  0.9673E+01
   8.490  0.9974E+00  0.9683E+01
   8.500  0.5478E+00  0.9689E+01
   8.510  0.2777E+00  0.9692E+01
   8.520  0.1585E+01  0.9707E+01
   8.530  0.2136E+01  0.9729E+01
   8.540  0.1260E+01  0.9741E+01
   8.550  0.8198E+00  0.9750E+01
   8.560  0.1897E+00  0.9751E+01
   8.570  0.5073E-01  0.9752E+01
   8.580  0.4511E+00  0.9757E+01
   8.590  0.6571E+00  0.9763E+01
   8.600  0.5080E+00  0.9768E+01
   8.610  0.7394E+00  0.9776E+01
   8.620  0.9247E+00  0.9785E+01
   8.630  0.1413E+01  0.9799E+01
   8.640  0.1426E+01  0.9813E+01
   8.650  0.1705E+01  0.9830E+01
   8.660  0.1185E+01  0.9842E+01
   8.670  0.1402E+01  0.9856E+01
   8.680  0.8859E+00  0.9865E+01
   8.690  0.7752E+00  0.9873E+01
   8.700  0.8447E+00  0.9881E+01
   8.710  0.3147E+01  0.9913E+01
   8.720  0.6660E+01  0.9979E+01
   8.730  0.5916E+01  0.1004E+02
   8.740  0.4150E+01  0.1008E+02
   8.750  0.1730E+01  0.1010E+02
   8.760  0.1230E+01  0.1011E+02
   8.770  0.3285E+01  0.1014E+02
   8.780  0.3272E+01  0.1018E+02
   8.790  0.1373E+01  0.1019E+02
   8.800  0.9024E+00  0.1020E+02
   8.810  0.1105E+01  0.1021E+02
   8.820  0.1446E+01  0.1022E+02
   8.830  0.1971E+01  0.1024E+02
   8.840  0.1982E+01  0.1026E+02
   8.850  0.2259E+01  0.1029E+02
   8.860  0.2082E+01  0.1031E+02
   8.870  0.9902E+00  0.1032E+02
   8.880  0.8619E+00  0.1032E+02
   8.890  0.1868E+01  0.1034E+02
   8.900  0.2065E+01  0.1036E+02
   8.910  0.1374E+01  0.1038E+02
   8.920  0.1365E+01  0.1039E+02
   8.930  0.6493E+00  0.1040E+02
   8.940  0.8764E+00  0.1041E+02
   8.950  0.1802E+01  0.1042E+02
   8.960  0.9832E+00  0.1043E+02
   8.970  0.9869E+00  0.1044E+02
   8.980  0.2352E+01  0.1047E+02
   8.990  0.1471E+01  0.1048E+02
   9.000  0.6354E+00  0.1049E+02
   9.010  0.1107E+01  0.1050E+02
   9.020  0.2124E+01  0.1052E+02
   9.030  0.2206E+01  0.1054E+02
   9.040  0.2078E+01  0.1056E+02
   9.050  0.1831E+01  0.1058E+02
   9.060  0.1461E+01  0.1060E+02
   9.070  0.1637E+01  0.1061E+02
   9.080  0.9055E+00  0.1062E+02
   9.090  0.8793E+00  0.1063E+02
   9.100  0.1417E+01  0.1065E+02
   9.110  0.1625E+01  0.1066E+02
   9.120  0.1567E+01  0.1068E+02
   9.130  0.6144E+00  0.1068E+02
   9.140  0.1155E+01  0.1070E+02
   9.150  0.2771E+01  0.1072E+02
   9.160  0.1197E+01  0.1073E+02
   9.170  0.1308E+01  0.1075E+02
   9.180  0.1861E+01  0.1077E+02
   9.190  0.2218E+01  0.1079E+02
   9.200  0.3837E+01  0.1083E+02
   9.210  0.4035E+01  0.1087E+02
   9.220  0.1914E+01  0.1089E+02
   9.230  0.1315E+01  0.1090E+02
   9.240  0.7009E+00  0.1091E+02
   9.250  0.5769E+00  0.1091E+02
   9.260  0.9193E+00  0.1092E+02
   9.270  0.1545E+01  0.1094E+02
   9.280  0.2390E+01  0.1096E+02
   9.290  0.1343E+01  0.1097E+02
   9.300  0.6066E+00  0.1098E+02
   9.310  0.8192E-01  0.1098E+02
   9.320  0.1648E-01  0.1098E+02
   9.330  0.3997E+00  0.1099E+02
   9.340  0.1669E+01  0.1100E+02
   9.350  0.2125E+01  0.1102E+02
   9.360  0.2236E+01  0.1105E+02
   9.370  0.2330E+01  0.1107E+02
   9.380  0.1082E+01  0.1108E+02
   9.390  0.2634E+00  0.1108E+02
   9.400  0.1140E+01  0.1109E+02
   9.410  0.1981E+01  0.1111E+02
   9.420  0.1417E+01  0.1113E+02
   9.430  0.1033E+01  0.1114E+02
   9.440  0.8521E+00  0.1115E+02
   9.450  0.8629E+00  0.1116E+02
   9.460  0.1038E+01  0.1117E+02
   9.470  0.1091E+01  0.1118E+02
   9.480  0.3469E+00  0.1118E+02
   9.490  0.5852E+00  0.1119E+02
   9.500  0.2418E+01  0.1121E+02
   9.510  0.2519E+01  0.1124E+02
   9.520  0.3080E+01  0.1127E+02
   9.530  0.2472E+01  0.1129E+02
   9.540  0.1794E+01  0.1131E+02
   9.550  0.9888E+00  0.1132E+02
   9.560  0.7936E+00  0.1133E+02
   9.570  0.7223E+00  0.1133E+02
   9.580  0.8781E+00  0.1134E+02
   9.590  0.8261E+00  0.1135E+02
   9.600  0.4068E+00  0.1136E+02
   9.610  0.9906E+00  0.1136E+02
   9.620  0.1384E+01  0.1138E+02
   9.630  0.1382E+01  0.1139E+02
   9.640  0.1002E+01  0.1140E+02
   9.650  0.3496E+00  0.1141E+02
   9.660  0.1477E+01  0.1142E+02
   9.670  0.2181E+01  0.1144E+02
   9.680  0.1330E+01  0.1146E+02
   9.690  0.1553E+01  0.1147E+02
   9.700  0.1365E+01  0.1149E+02
   9.710  0.5548E+00  0.1149E+02
   9.720  0.5082E+00  0.1150E+02
   9.730  0.6841E+00  0.1150E+02
   9.740  0.6355E+00  0.1151E+02
   9.750  0.5771E+00  0.1151E+02
   9.760  0.3150E+00  0.1152E+02
   9.770  0.1169E+01  0.1153E+02
   9.780  0.9557E+00  0.1154E+02
   9.790  0.3249E+00  0.1154E+02
   9.800  0.1369E+01  0.1156E+02
   9.810  0.1674E+01  0.1157E+02
   9.820  0.6553E+00  0.1158E+02
   9.830  0.7144E+00  0.1159E+02
   9.840  0.3447E+00  0.1159E+02
   9.850  0.3834E+00  0.1159E+02
   9.860  0.1685E+01  0.1161E+02
   9.870  0.2124E+01  0.1163E+02
   9.880  0.1337E+01  0.1165E+02
   9.890  0.6454E+00  0.1165E+02
   9.900  0.4806E+00  0.1166E+02
   9.910  0.6662E+00  0.1166E+02
   9.920  0.4226E+00  0.1167E+02
   9.930  0.1334E+01  0.1168E+02
   9.940  0.1287E+01  0.1169E+02
   9.950  0.1335E+01  0.1171E+02
   9.960  0.6706E+00  0.1171E+02
   9.970  0.2098E+00  0.1172E+02
   9.980  0.1270E+01  0.1173E+02
   9.990  0.2116E+01  0.1175E+02
  10.000  0.1783E+01  0.1177E+02
  10.010  0.8204E+00  0.1178E+02
  10.020  0.8138E-01  0.1178E+02
  10.030  0.3117E+00  0.1178E+02
  10.040  0.1708E+01  0.1180E+02
  10.050  0.3321E+01  0.1183E+02
  10.060  0.3686E+01  0.1187E+02
  10.070  0.8733E+00  0.1188E+02
  10.080  0.4533E-01  0.1188E+02
  10.090  0.3764E+00  0.1188E+02
  10.100  0.1643E+01  0.1190E+02
  10.110  0.2051E+01  0.1192E+02
  10.120  0.1207E+01  0.1193E+02
  10.130  0.7427E+00  0.1194E+02
  10.140  0.1715E+00  0.1194E+02
  10.150  0.7319E-01  0.1194E+02
  10.160  0.7902E+00  0.1195E+02
  10.170  0.2544E+01  0.1197E+02
  10.180  0.2451E+01  0.1200E+02
  10.190  0.1376E+01  0.1201E+02
  10.200  0.1288E+01  0.1202E+02
  10.210  0.7002E+00  0.1203E+02
  10.220  0.9549E+00  0.1204E+02
  10.230  0.1935E+01  0.1206E+02
  10.240  0.3124E+01  0.1209E+02
  10.250  0.3910E+01  0.1213E+02
  10.260  0.2449E+01  0.1215E+02
  10.270  0.2241E+01  0.1218E+02
  10.280  0.2871E+01  0.1220E+02
  10.290  0.2415E+01  0.1223E+02
  10.300  0.1194E+01  0.1224E+02
  10.310  0.1198E+01  0.1225E+02
  10.320  0.8240E+00  0.1226E+02
  10.330  0.1154E+01  0.1227E+02
  10.340  0.2335E+01  0.1230E+02
  10.350  0.2208E+01  0.1232E+02
  10.360  0.6015E+00  0.1232E+02
  10.370  0.1190E+01  0.1234E+02
  10.380  0.2180E+01  0.1236E+02
  10.390  0.1994E+01  0.1238E+02
  10.400  0.6927E+00  0.1238E+02
  10.410  0.3914E+00  0.1239E+02
  10.420  0.1342E+01  0.1240E+02
  10.430  0.7590E+00  0.1241E+02
  10.440  0.7618E+00  0.1242E+02
  10.450  0.2802E+01  0.1245E+02
  10.460  0.2862E+01  0.1247E+02
  10.470  0.1257E+01  0.1249E+02
  10.480  0.8166E+00  0.1249E+02
  10.490  0.7546E+00  0.1250E+02
  10.500  0.1378E+01  0.1252E+02
  10.510  0.8104E+00  0.1252E+02
  10.520  0.9481E+00  0.1253E+02
  10.530  0.1826E+01  0.1255E+02
  10.540  0.2150E+01  0.1257E+02
  10.550  0.9248E+00  0.1258E+02
  10.560  0.3075E+00  0.1259E+02
  10.570  0.6843E+00  0.1259E+02
  10.580  0.3513E+00  0.1260E+02
  10.590  0.2452E-01  0.1260E+02
  10.600  0.8345E-03  0.1260E+02
  10.610  0.4504E-01  0.1260E+02
  10.620  0.4561E+00  0.1260E+02
  10.630  0.6854E+00  0.1261E+02
  10.640  0.9805E+00  0.1262E+02
  10.650  0.2467E+01  0.1264E+02
  10.660  0.1448E+01  0.1266E+02
  10.670  0.4813E+00  0.1266E+02
  10.680  0.1001E+01  0.1267E+02
  10.690  0.8996E+00  0.1268E+02
  10.700  0.2223E+00  0.1268E+02
  10.710  0.6644E-01  0.1268E+02
  10.720  0.5001E+00  0.1269E+02
  10.730  0.5881E+00  0.1269E+02
  10.740  0.9717E-01  0.1270E+02
  10.750  0.1604E+00  0.1270E+02
  10.760  0.1056E+01  0.1271E+02
  10.770  0.1089E+01  0.1272E+02
  10.780  0.1739E+00  0.1272E+02
  10.790  0.4177E-02  0.1272E+02
  10.800  0.9633E-04  0.1272E+02
  10.810  0.1237E-01  0.1272E+02
  10.820  0.2534E+00  0.1272E+02
  10.830  0.7292E+00  0.1273E+02
  10.840  0.6877E+00  0.1274E+02
  10.850  0.1411E+01  0.1275E+02
  10.860  0.1517E+01  0.1277E+02
  10.870  0.3464E+00  0.1277E+02
  10.880  0.1166E-01  0.1277E+02
  10.890  0.5375E-04  0.1277E+02
  10.900  0.3358E-07  0.1277E+02
  10.910  0.5827E-11  0.1277E+02
  10.920  0.3057E-07  0.1277E+02
  10.930  0.4234E-04  0.1277E+02
  10.940  0.7944E-02  0.1277E+02
  10.950  0.2036E+00  0.1277E+02
  10.960  0.7925E+00  0.1278E+02
  10.970  0.9674E+00  0.1279E+02
  10.980  0.9784E+00  0.1280E+02
  10.990  0.9601E+00  0.1281E+02
  11.000  0.1145E+01  0.1282E+02
  11.010  0.1630E+01  0.1284E+02
  11.020  0.1271E+01  0.1285E+02
  11.030  0.1146E+01  0.1286E+02
  11.040  0.7238E+00  0.1287E+02
  11.050  0.1765E+00  0.1287E+02
  11.060  0.8069E+00  0.1288E+02
  11.070  0.1365E+01  0.1289E+02
  11.080  0.7700E+00  0.1290E+02
  11.090  0.6138E+00  0.1291E+02
  11.100  0.1152E+00  0.1291E+02
  11.110  0.2489E+00  0.1291E+02
  11.120  0.7008E+00  0.1292E+02
  11.130  0.2986E+00  0.1292E+02
  11.140  0.4925E+00  0.1292E+02
  11.150  0.1650E+01  0.1294E+02
  11.160  0.1367E+01  0.1295E+02
  11.170  0.4772E+00  0.1296E+02
  11.180  0.1746E+01  0.1298E+02
  11.190  0.1725E+01  0.1299E+02
  11.200  0.9078E+00  0.1300E+02
  11.210  0.7431E+00  0.1301E+02
  11.220  0.1051E+01  0.1302E+02
  11.230  0.8275E+00  0.1303E+02
  11.240  0.1837E+00  0.1303E+02
  11.250  0.3399E+00  0.1303E+02
  11.260  0.1377E+01  0.1305E+02
  11.270  0.1279E+01  0.1306E+02
  11.280  0.1471E+01  0.1308E+02
  11.290  0.8466E+00  0.1308E+02
  11.300  0.1377E+01  0.1310E+02
  11.310  0.1361E+01  0.1311E+02
  11.320  0.5792E+00  0.1312E+02
  11.330  0.6273E-01  0.1312E+02
  11.340  0.1544E+00  0.1312E+02
  11.350  0.9657E+00  0.1313E+02
  11.360  0.1847E+01  0.1315E+02
  11.370  0.2854E+01  0.1318E+02
  11.380  0.1582E+01  0.1319E+02
  11.390  0.7745E+00  0.1320E+02
  11.400  0.1020E+01  0.1321E+02
  11.410  0.6432E+00  0.1322E+02
  11.420  0.9368E-01  0.1322E+02
  11.430  0.1024E+00  0.1322E+02
  11.440  0.6002E+00  0.1322E+02
  11.450  0.4853E+00  0.1323E+02
  11.460  0.5480E-01  0.1323E+02
  11.470  0.9285E-01  0.1323E+02
  11.480  0.9855E+00  0.1324E+02
  11.490  0.3579E+01  0.1328E+02
  11.500  0.3424E+01  0.1331E+02
  11.510  0.5953E+00  0.1332E+02
  11.520  0.3149E-01  0.1332E+02
  11.530  0.3725E+00  0.1332E+02
  11.540  0.1455E+01  0.1334E+02
  11.550  0.1257E+01  0.1335E+02
  11.560  0.5646E+00  0.1335E+02
  11.570  0.6398E-01  0.1335E+02
  11.580  0.1055E-02  0.1335E+02
  11.590  0.2403E-05  0.1335E+02
  11.600  0.5418E-04  0.1335E+02
  11.610  0.1170E-01  0.1335E+02
  11.620  0.3421E+00  0.1336E+02
  11.630  0.1354E+01  0.1337E+02
  11.640  0.7611E+00  0.1338E+02
  11.650  0.6497E+00  0.1339E+02
  11.660  0.1379E+01  0.1340E+02
  11.670  0.4863E+00  0.1340E+02
  11.680  0.4330E+00  0.1341E+02
  11.690  0.6802E+00  0.1342E+02
  11.700  0.7858E+00  0.1342E+02
  11.710  0.2296E+01  0.1345E+02
  11.720  0.2387E+01  0.1347E+02
  11.730  0.1735E+01  0.1349E+02
  11.740  0.3873E+00  0.1349E+02
  11.750  0.6295E+00  0.1350E+02
  11.760  0.2075E+01  0.1352E+02
  11.770  0.2615E+01  0.1354E+02
  11.780  0.2800E+01  0.1357E+02
  11.790  0.1858E+01  0.1359E+02
  11.800  0.1002E+01  0.1360E+02
  11.810  0.6109E+00  0.1361E+02
  11.820  0.7834E+00  0.1361E+02
  11.830  0.8002E+00  0.1362E+02
  11.840  0.8187E+00  0.1363E+02
  11.850  0.7172E+00  0.1364E+02
  11.860  0.1679E+00  0.1364E+02
  11.870  0.1131E-01  0.1364E+02
  11.880  0.1685E+00  0.1364E+02
  11.890  0.6821E+00  0.1365E+02
  11.900  0.5698E+00  0.1365E+02
  11.910  0.1206E+01  0.1367E+02
  11.920  0.3196E+01  0.1370E+02
  11.930  0.3328E+01  0.1373E+02
  11.940  0.1697E+01  0.1375E+02
  11.950  0.1256E+01  0.1376E+02
  11.960  0.3010E+00  0.1376E+02
  11.970  0.1206E-01  0.1376E+02
  11.980  0.8806E-03  0.1376E+02
  11.990  0.5410E-01  0.1376E+02
  12.000  0.4976E+00  0.1377E+02
  12.010  0.8377E+00  0.1378E+02
  12.020  0.1310E+01  0.1379E+02
  12.030  0.1697E+01  0.1381E+02
  12.040  0.5439E+00  0.1381E+02
  12.050  0.3139E-01  0.1381E+02
  12.060  0.1658E+00  0.1382E+02
  12.070  0.1140E+01  0.1383E+02
  12.080  0.1242E+01  0.1384E+02
  12.090  0.9127E+00  0.1385E+02
  12.100  0.1323E+01  0.1386E+02
  12.110  0.2124E+01  0.1388E+02
  12.120  0.1437E+01  0.1390E+02
  12.130  0.3421E+00  0.1390E+02
  12.140  0.3117E+00  0.1390E+02
  12.150  0.1359E+01  0.1392E+02
  12.160  0.1277E+01  0.1393E+02
  12.170  0.1174E+01  0.1394E+02
  12.180  0.8285E+00  0.1395E+02
  12.190  0.8568E+00  0.1396E+02
  12.200  0.1214E+01  0.1397E+02
  12.210  0.4563E+00  0.1398E+02
  12.220  0.6846E+00  0.1398E+02
  12.230  0.1438E+01  0.1400E+02
  12.240  0.1161E+01  0.1401E+02
  12.250  0.1707E+01  0.1403E+02
  12.260  0.1569E+01  0.1404E+02
  12.270  0.8699E+00  0.1405E+02
  12.280  0.1172E+01  0.1406E+02
  12.290  0.2554E+01  0.1409E+02
  12.300  0.1676E+01  0.1410E+02
  12.310  0.1626E+01  0.1412E+02
  12.320  0.1519E+01  0.1414E+02
  12.330  0.1511E+01  0.1415E+02
  12.340  0.9953E+00  0.1416E+02
  12.350  0.7762E+00  0.1417E+02
  12.360  0.6648E+00  0.1417E+02
  12.370  0.1351E+01  0.1419E+02
  12.380  0.2910E+01  0.1422E+02
  12.390  0.2258E+01  0.1424E+02
  12.400  0.7763E+00  0.1425E+02
  12.410  0.1327E+00  0.1425E+02
  12.420  0.6038E+00  0.1425E+02
  12.430  0.1339E+01  0.1427E+02
  12.440  0.6049E+00  0.1427E+02
  12.450  0.1107E+01  0.1429E+02
  12.460  0.1708E+01  0.1430E+02
  12.470  0.7591E+00  0.1431E+02
  12.480  0.4482E+00  0.1431E+02
  12.490  0.6759E+00  0.1432E+02
  12.500  0.2793E+00  0.1432E+02
  12.510  0.6331E+00  0.1433E+02
  12.520  0.6311E+00  0.1434E+02
  12.530  0.1389E+01  0.1435E+02
  12.540  0.2941E+01  0.1438E+02
  12.550  0.2203E+01  0.1440E+02
  12.560  0.7127E+00  0.1441E+02
  12.570  0.7103E-01  0.1441E+02
  12.580  0.2477E-01  0.1441E+02
  12.590  0.4942E+00  0.1442E+02
  12.600  0.1404E+01  0.1443E+02
  12.610  0.6468E+00  0.1444E+02
  12.620  0.7371E+00  0.1444E+02
  12.630  0.1427E+01  0.1446E+02
  12.640  0.1893E+01  0.1448E+02
  12.650  0.9641E+00  0.1449E+02
  12.660  0.1409E+01  0.1450E+02
  12.670  0.1764E+01  0.1452E+02
  12.680  0.6434E+00  0.1452E+02
  12.690  0.1041E+01  0.1453E+02
  12.700  0.1643E+01  0.1455E+02
  12.710  0.8039E+00  0.1456E+02
  12.720  0.7247E+00  0.1457E+02
  12.730  0.1866E+01  0.1458E+02
  12.740  0.3140E+01  0.1462E+02
  12.750  0.2984E+01  0.1465E+02
  12.760  0.1250E+01  0.1466E+02
  12.770  0.8249E+00  0.1467E+02
  12.780  0.3762E+00  0.1467E+02
  12.790  0.2788E-01  0.1467E+02
  12.800  0.1574E-02  0.1467E+02
  12.810  0.9544E-01  0.1467E+02
  12.820  0.1007E+01  0.1468E+02
  12.830  0.1800E+01  0.1470E+02
  12.840  0.7886E+00  0.1471E+02
  12.850  0.9139E+00  0.1472E+02
  12.860  0.3126E+01  0.1475E+02
  12.870  0.1990E+01  0.1477E+02
  12.880  0.2106E+00  0.1477E+02
  12.890  0.5299E-02  0.1477E+02
  12.900  0.8544E-01  0.1477E+02
  12.910  0.5720E+00  0.1478E+02
  12.920  0.5183E+00  0.1478E+02
  12.930  0.6357E-01  0.1478E+02
  12.940  0.2954E-02  0.1478E+02
  12.950  0.1078E+00  0.1478E+02
  12.960  0.1011E+01  0.1479E+02
  12.970  0.2039E+01  0.1481E+02
  12.980  0.2079E+01  0.1483E+02
  12.990  0.1921E+01  0.1485E+02
  13.000  0.1538E+01  0.1487E+02
  13.010  0.1293E+01  0.1488E+02
  13.020  0.1335E+01  0.1490E+02
  13.030  0.1104E+01  0.1491E+02
  13.040  0.9982E+00  0.1492E+02
  13.050  0.2211E+01  0.1494E+02
  13.060  0.1577E+01  0.1495E+02
  13.070  0.3929E+00  0.1496E+02
  13.080  0.6977E+00  0.1497E+02
  13.090  0.3085E+00  0.1497E+02
  13.100  0.8639E-01  0.1497E+02
  13.110  0.8635E+00  0.1498E+02
  13.120  0.1819E+01  0.1500E+02
  13.130  0.9970E+00  0.1501E+02
  13.140  0.7324E+00  0.1501E+02
  13.150  0.5239E+00  0.1502E+02
  13.160  0.8715E+00  0.1503E+02
  13.170  0.1415E+01  0.1504E+02
  13.180  0.1711E+01  0.1506E+02
  13.190  0.2439E+01  0.1508E+02
  13.200  0.8983E+00  0.1509E+02
  13.210  0.8129E-01  0.1509E+02
  13.220  0.1485E-02  0.1509E+02
  13.230  0.1916E-01  0.1509E+02
  13.240  0.3507E+00  0.1510E+02
  13.250  0.1358E+01  0.1511E+02
  13.260  0.2309E+01  0.1513E+02
  13.270  0.2061E+01  0.1515E+02
  13.280  0.2272E+01  0.1518E+02
  13.290  0.1736E+01  0.1519E+02
  13.300  0.1298E+01  0.1521E+02
  13.310  0.8919E+00  0.1522E+02
  13.320  0.3395E+00  0.1522E+02
  13.330  0.7290E+00  0.1523E+02
  13.340  0.8918E+00  0.1524E+02
  13.350  0.1416E+01  0.1525E+02
  13.360  0.4631E+00  0.1525E+02
  13.370  0.1999E+00  0.1526E+02
  13.380  0.6833E+00  0.1526E+02
  13.390  0.4325E+00  0.1527E+02
  13.400  0.8100E+00  0.1528E+02
  13.410  0.2158E+01  0.1530E+02
  13.420  0.1992E+01  0.1532E+02
  13.430  0.1556E+01  0.1533E+02
  13.440  0.8097E+00  0.1534E+02
  13.450  0.7003E-01  0.1534E+02
  13.460  0.1618E+00  0.1534E+02
  13.470  0.1147E+01  0.1535E+02
  13.480  0.1463E+01  0.1537E+02
  13.490  0.8111E+00  0.1538E+02
  13.500  0.6350E+00  0.1538E+02
  13.510  0.2524E+01  0.1541E+02
  13.520  0.1810E+01  0.1543E+02
  13.530  0.7229E+00  0.1543E+02
  13.540  0.1477E+01  0.1545E+02
  13.550  0.1096E+01  0.1546E+02
  13.560  0.5885E+00  0.1547E+02
  13.570  0.5947E+00  0.1547E+02
  13.580  0.6080E+00  0.1548E+02
  13.590  0.7094E+00  0.1549E+02
  13.600  0.1633E+01  0.1550E+02
  13.610  0.1208E+01  0.1551E+02
  13.620  0.2845E+00  0.1552E+02
  13.630  0.6825E+00  0.1552E+02
  13.640  0.1400E+01  0.1554E+02
  13.650  0.1308E+01  0.1555E+02
  13.660  0.7165E+00  0.1556E+02
  13.670  0.1570E+01  0.1557E+02
  13.680  0.1453E+01  0.1559E+02
  13.690  0.5619E+00  0.1559E+02
  13.700  0.8387E+00  0.1560E+02
  13.710  0.1086E+01  0.1561E+02
  13.720  0.1176E+01  0.1562E+02
  13.730  0.9357E+00  0.1563E+02
  13.740  0.2355E+01  0.1566E+02
  13.750  0.1812E+01  0.1568E+02
  13.760  0.9361E+00  0.1568E+02
  13.770  0.1690E+01  0.1570E+02
  13.780  0.1510E+01  0.1572E+02
  13.790  0.1474E+01  0.1573E+02
  13.800  0.7451E+00  0.1574E+02
  13.810  0.5750E+00  0.1574E+02
  13.820  0.1127E+01  0.1576E+02
  13.830  0.1524E+01  0.1577E+02
  13.840  0.2910E+01  0.1580E+02
  13.850  0.2438E+01  0.1582E+02
  13.860  0.1859E+01  0.1584E+02
  13.870  0.1967E+01  0.1586E+02
  13.880  0.1057E+01  0.1587E+02
  13.890  0.4420E+00  0.1588E+02
  13.900  0.1424E+01  0.1589E+02
  13.910  0.3344E+01  0.1593E+02
  13.920  0.5393E+01  0.1598E+02
  13.930  0.3979E+01  0.1602E+02
  13.940  0.2181E+01  0.1604E+02
  13.950  0.1598E+01  0.1606E+02
  13.960  0.1629E+01  0.1607E+02
  13.970  0.2408E+01  0.1610E+02
  13.980  0.3135E+01  0.1613E+02
  13.990  0.1800E+01  0.1615E+02
  14.000  0.1997E+01  0.1617E+02
  14.010  0.2584E+01  0.1619E+02
  14.020  0.1548E+01  0.1621E+02
  14.030  0.3044E+00  0.1621E+02
  14.040  0.1559E+00  0.1621E+02
  14.050  0.6573E+00  0.1622E+02
  14.060  0.4014E+00  0.1622E+02
  14.070  0.3836E-01  0.1622E+02
  14.080  0.1659E+00  0.1623E+02
  14.090  0.8961E+00  0.1623E+02
  14.100  0.1619E+01  0.1625E+02
  14.110  0.9475E+00  0.1626E+02
  14.120  0.1509E+00  0.1626E+02
  14.130  0.8994E+00  0.1627E+02
  14.140  0.2904E+01  0.1630E+02
  14.150  0.3789E+01  0.1634E+02
  14.160  0.3553E+01  0.1637E+02
  14.170  0.2738E+01  0.1640E+02
  14.180  0.2836E+01  0.1643E+02
  14.190  0.3608E+01  0.1646E+02
  14.200  0.2149E+01  0.1649E+02
  14.210  0.1954E+01  0.1651E+02
  14.220  0.1386E+01  0.1652E+02
  14.230  0.2420E+00  0.1652E+02
  14.240  0.4023E+00  0.1653E+02
  14.250  0.6598E+00  0.1653E+02
  14.260  0.1533E+00  0.1653E+02
  14.270  0.3360E+00  0.1654E+02
  14.280  0.3377E+01  0.1657E+02
  14.290  0.5651E+01  0.1663E+02
  14.300  0.2557E+01  0.1665E+02
  14.310  0.1504E+01  0.1667E+02
  14.320  0.1430E+01  0.1668E+02
  14.330  0.1894E+01  0.1670E+02
  14.340  0.1826E+01  0.1672E+02
  14.350  0.1313E+01  0.1673E+02
  14.360  0.9745E+00  0.1674E+02
  14.370  0.1565E+01  0.1676E+02
  14.380  0.1850E+01  0.1678E+02
  14.390  0.5371E+00  0.1678E+02
  14.400  0.2814E-01  0.1678E+02
  14.410  0.5973E-02  0.1678E+02
  14.420  0.1706E+00  0.1678E+02
  14.430  0.7697E+00  0.1679E+02
  14.440  0.1322E+01  0.1681E+02
  14.450  0.1653E+01  0.1682E+02
  14.460  0.9096E+00  0.1683E+02
  14.470  0.6005E+00  0.1684E+02
  14.480  0.1765E+01  0.1685E+02
  14.490  0.2808E+01  0.1688E+02
  14.500  0.2007E+01  0.1690E+02
  14.510  0.3962E+00  0.1691E+02
  14.520  0.2949E-01  0.1691E+02
  14.530  0.2675E+00  0.1691E+02
  14.540  0.7006E+00  0.1692E+02
  14.550  0.2487E+00  0.1692E+02
  14.560  0.4143E-01  0.1692E+02
  14.570  0.3817E+00  0.1692E+02
  14.580  0.6677E+00  0.1693E+02
  14.590  0.1581E+00  0.1693E+02
  14.600  0.5335E-02  0.1693E+02
  14.610  0.2702E-01  0.1693E+02
  14.620  0.3716E+00  0.1694E+02
  14.630  0.8761E+00  0.1694E+02
  14.640  0.1466E+01  0.1696E+02
  14.650  0.2023E+01  0.1698E+02
  14.660  0.1281E+01  0.1699E+02
  14.670  0.5378E+00  0.1700E+02
  14.680  0.1567E+01  0.1701E+02
  14.690  0.1399E+01  0.1703E+02
  14.700  0.3743E+00  0.1703E+02
  14.710  0.1736E+00  0.1703E+02
  14.720  0.6759E+00  0.1704E+02
  14.730  0.7944E+00  0.1705E+02
  14.740  0.1944E+01  0.1707E+02
  14.750  0.1276E+01  0.1708E+02
  14.760  0.1197E+00  0.1708E+02
  14.770  0.1574E-02  0.1708E+02
  14.780  0.8659E-05  0.1708E+02
  14.790  0.2444E-02  0.1708E+02
  14.800  0.1426E+00  0.1708E+02
  14.810  0.1227E+01  0.1709E+02
  14.820  0.2074E+01  0.1712E+02
  14.830  0.1262E+01  0.1713E+02
  14.840  0.2517E+00  0.1713E+02
  14.850  0.9975E-02  0.1713E+02
  14.860  0.4783E-01  0.1713E+02
  14.870  0.4664E+00  0.1714E+02
  14.880  0.6605E+00  0.1714E+02
  14.890  0.8364E+00  0.1715E+02
  14.900  0.1993E+01  0.1717E+02
  14.910  0.1808E+01  0.1719E+02
  14.920  0.1989E+01  0.1721E+02
  14.930  0.2422E+01  0.1723E+02
  14.940  0.1801E+01  0.1725E+02
  14.950  0.1039E+01  0.1726E+02
  14.960  0.8424E+00  0.1727E+02
  14.970  0.1688E+01  0.1729E+02
  14.980  0.1518E+01  0.1730E+02
  14.990  0.2856E+00  0.1730E+02
  15.000  0.2908E+00  0.1731E+02
  15.010  0.7752E+00  0.1732E+02
  15.020  0.1065E+01  0.1733E+02
  15.030  0.1486E+01  0.1734E+02
  15.040  0.9761E+00  0.1735E+02
  15.050  0.3473E+00  0.1735E+02
  15.060  0.4452E-01  0.1735E+02
  15.070  0.3343E+00  0.1736E+02
  15.080  0.6874E+00  0.1736E+02
  15.090  0.1924E+00  0.1737E+02
  15.100  0.6952E-01  0.1737E+02
  15.110  0.5809E+00  0.1737E+02
  15.120  0.1414E+01  0.1739E+02
  15.130  0.1754E+01  0.1740E+02
  15.140  0.1303E+01  0.1742E+02
  15.150  0.1954E+01  0.1744E+02
  15.160  0.2148E+01  0.1746E+02
  15.170  0.6811E+00  0.1747E+02
  15.180  0.4030E-01  0.1747E+02
  15.190  0.3567E-03  0.1747E+02
  15.200  0.4458E-06  0.1747E+02
  15.210  0.7740E-10  0.1747E+02
  15.220  0.5702E-09  0.1747E+02
  15.230  0.1975E-05  0.1747E+02
  15.240  0.9265E-03  0.1747E+02
  15.250  0.5958E-01  0.1747E+02
  15.260  0.5915E+00  0.1747E+02
  15.270  0.1843E+01  0.1749E+02
  15.280  0.3259E+01  0.1752E+02
  15.290  0.2275E+01  0.1755E+02
  15.300  0.8992E+00  0.1756E+02
  15.310  0.7463E+00  0.1756E+02
  15.320  0.2515E+00  0.1757E+02
  15.330  0.1216E-01  0.1757E+02
  15.340  0.7974E-04  0.1757E+02
  15.350  0.4482E-05  0.1757E+02
  15.360  0.2004E-02  0.1757E+02
  15.370  0.1232E+00  0.1757E+02
  15.380  0.1025E+01  0.1758E+02
  15.390  0.1156E+01  0.1759E+02
  15.400  0.2579E+00  0.1759E+02
  15.410  0.7377E+00  0.1760E+02
  15.420  0.1693E+01  0.1762E+02
  15.430  0.1092E+01  0.1763E+02
  15.440  0.1860E+00  0.1763E+02
  15.450  0.5182E+00  0.1763E+02
  15.460  0.5739E+00  0.1764E+02
  15.470  0.8634E-01  0.1764E+02
  15.480  0.1758E-02  0.1764E+02
  15.490  0.4843E-05  0.1764E+02
  15.500  0.2803E-08  0.1764E+02
  15.510  0.3075E-05  0.1764E+02
  15.520  0.1303E-02  0.1764E+02
  15.530  0.7853E-01  0.1764E+02
  15.540  0.7396E+00  0.1765E+02
  15.550  0.1431E+01  0.1766E+02
  15.560  0.1581E+01  0.1768E+02
  15.570  0.1020E+01  0.1769E+02
  15.580  0.1150E+00  0.1769E+02
  15.590  0.3498E-01  0.1769E+02
  15.600  0.5312E+00  0.1770E+02
  15.610  0.1745E+01  0.1771E+02
  15.620  0.1261E+01  0.1773E+02
  15.630  0.3118E+00  0.1773E+02
  15.640  0.8977E+00  0.1774E+02
  15.650  0.1983E+01  0.1776E+02
  15.660  0.1667E+01  0.1777E+02
  15.670  0.2627E+00  0.1778E+02
  15.680  0.2282E+00  0.1778E+02
  15.690  0.1747E+01  0.1780E+02
  15.700  0.2326E+01  0.1782E+02
  15.710  0.7212E+00  0.1783E+02
  15.720  0.6111E+00  0.1783E+02
  15.730  0.5154E+00  0.1784E+02
  15.740  0.6243E-01  0.1784E+02
  15.750  0.1024E-02  0.1784E+02
  15.760  0.7536E-04  0.1784E+02
  15.770  0.1147E-01  0.1784E+02
  15.780  0.2437E+00  0.1784E+02
  15.790  0.7054E+00  0.1785E+02
  15.800  0.4992E+00  0.1785E+02
  15.810  0.1777E+01  0.1787E+02
  15.820  0.2525E+01  0.1790E+02
  15.830  0.1643E+01  0.1791E+02
  15.840  0.1909E+01  0.1793E+02
  15.850  0.6031E+00  0.1794E+02
  15.860  0.2891E+00  0.1794E+02
  15.870  0.7012E+00  0.1795E+02
  15.880  0.2603E+00  0.1795E+02
  15.890  0.1346E-01  0.1795E+02
  15.900  0.3434E-01  0.1795E+02
  15.910  0.4813E+00  0.1796E+02
  15.920  0.1523E+01  0.1797E+02
  15.930  0.1422E+01  0.1798E+02
  15.940  0.2621E+00  0.1799E+02
  15.950  0.1575E+00  0.1799E+02
  15.960  0.1209E+01  0.1800E+02
  15.970  0.1769E+01  0.1802E+02
  15.980  0.7006E+00  0.1803E+02
  15.990  0.1759E+01  0.1804E+02
  16.000  0.3314E+01  0.1808E+02
  16.010  0.1356E+01  0.1809E+02
  16.020  0.1732E+01  0.1811E+02
  16.030  0.3162E+01  0.1814E+02
  16.040  0.3494E+01  0.1817E+02
  16.050  0.1469E+01  0.1819E+02
  16.060  0.1425E+01  0.1820E+02
  16.070  0.1180E+01  0.1821E+02
  16.080  0.1357E+01  0.1823E+02
  16.090  0.1189E+01  0.1824E+02
  16.100  0.1751E+01  0.1826E+02
  16.110  0.1680E+01  0.1827E+02
  16.120  0.1055E+01  0.1829E+02
  16.130  0.7611E+00  0.1829E+02
  16.140  0.5369E+00  0.1830E+02
  16.150  0.7643E+00  0.1831E+02
  16.160  0.1931E+01  0.1833E+02
  16.170  0.9587E+00  0.1833E+02
  16.180  0.1161E+00  0.1834E+02
  16.190  0.6754E+00  0.1834E+02
  16.200  0.1998E+01  0.1836E+02
  16.210  0.1797E+01  0.1838E+02
  16.220  0.4614E+00  0.1839E+02
  16.230  0.4674E+00  0.1839E+02
  16.240  0.1440E+01  0.1840E+02
  16.250  0.1477E+01  0.1842E+02
  16.260  0.3132E+01  0.1845E+02
  16.270  0.1966E+01  0.1847E+02
  16.280  0.2882E+00  0.1847E+02
  16.290  0.5613E+00  0.1848E+02
  16.300  0.5369E+00  0.1848E+02
  16.310  0.1950E+00  0.1849E+02
  16.320  0.6407E+00  0.1849E+02
  16.330  0.5520E+00  0.1850E+02
  16.340  0.6648E+00  0.1850E+02
  16.350  0.4537E+00  0.1851E+02
  16.360  0.4452E-01  0.1851E+02
  16.370  0.5919E-03  0.1851E+02
  16.380  0.1065E-05  0.1851E+02
  16.390  0.4104E-06  0.1851E+02
  16.400  0.2946E-03  0.1851E+02
  16.410  0.2863E-01  0.1851E+02
  16.420  0.3765E+00  0.1851E+02
  16.430  0.6714E+00  0.1852E+02
  16.440  0.2403E+00  0.1852E+02
  16.450  0.7593E+00  0.1853E+02
  16.460  0.1253E+01  0.1854E+02
  16.470  0.3791E+00  0.1855E+02
  16.480  0.8659E-01  0.1855E+02
  16.490  0.5300E+00  0.1855E+02
  16.500  0.5615E+00  0.1856E+02
  16.510  0.9210E-01  0.1856E+02
  16.520  0.2466E+00  0.1856E+02
  16.530  0.7004E+00  0.1857E+02
  16.540  0.2710E+00  0.1857E+02
  16.550  0.1419E-01  0.1857E+02
  16.560  0.1005E-03  0.1857E+02
  16.570  0.2343E-05  0.1857E+02
  16.580  0.1015E-02  0.1857E+02
  16.590  0.6210E-01  0.1857E+02
  16.600  0.5141E+00  0.1858E+02
  16.610  0.5758E+00  0.1858E+02
  16.620  0.8745E-01  0.1858E+02
  16.630  0.2019E-01  0.1858E+02
  16.640  0.3074E+00  0.1859E+02
  16.650  0.6979E+00  0.1859E+02
  16.660  0.3296E+00  0.1860E+02
  16.670  0.6391E+00  0.1860E+02
  16.680  0.6120E+00  0.1861E+02
  16.690  0.7132E+00  0.1862E+02
  16.700  0.3796E+00  0.1862E+02
  16.710  0.2939E-01  0.1862E+02
  16.720  0.8966E-01  0.1862E+02
  16.730  0.3777E+01  0.1866E+02
  16.740  0.2488E+02  0.1891E+02
  16.750  0.2806E+02  0.1919E+02
  16.760  0.8357E+01  0.1927E+02
  16.770  0.3716E+01  0.1931E+02
  16.780  0.3186E+01  0.1934E+02
  16.790  0.2689E+01  0.1937E+02
  16.800  0.2056E+01  0.1939E+02
  16.810  0.1568E+01  0.1940E+02
  16.820  0.1771E+01  0.1942E+02
  16.830  0.1546E+01  0.1944E+02
  16.840  0.1338E+01  0.1945E+02
  16.850  0.9165E+00  0.1946E+02
  16.860  0.2418E+01  0.1948E+02
  16.870  0.1646E+01  0.1950E+02
  16.880  0.2372E+00  0.1950E+02
  16.890  0.7582E+00  0.1951E+02
  16.900  0.1339E+01  0.1952E+02
  16.910  0.3217E+00  0.1953E+02
  16.920  0.5275E-01  0.1953E+02
  16.930  0.6566E+00  0.1953E+02
  16.940  0.1379E+01  0.1955E+02
  16.950  0.3920E+00  0.1955E+02
  16.960  0.4949E-01  0.1955E+02
  16.970  0.6941E+00  0.1956E+02
  16.980  0.2421E+01  0.1958E+02
  16.990  0.1621E+01  0.1960E+02
  17.000  0.1954E+00  0.1960E+02
  17.010  0.5589E-02  0.1960E+02
  17.020  0.1202E+00  0.1960E+02
  17.030  0.1051E+01  0.1961E+02
  17.040  0.1581E+01  0.1963E+02
  17.050  0.8287E+00  0.1964E+02
  17.060  0.1434E+00  0.1964E+02
  17.070  0.1714E+00  0.1964E+02
  17.080  0.1137E+01  0.1965E+02
  17.090  0.1053E+01  0.1966E+02
  17.100  0.3544E+00  0.1967E+02
  17.110  0.1022E+01  0.1968E+02
  17.120  0.1966E+01  0.1970E+02
  17.130  0.1784E+01  0.1971E+02
  17.140  0.1104E+01  0.1973E+02
  17.150  0.1588E+01  0.1974E+02
  17.160  0.2192E+01  0.1976E+02
  17.170  0.1162E+01  0.1978E+02
  17.180  0.1303E+00  0.1978E+02
  17.190  0.7707E-01  0.1978E+02
  17.200  0.5487E+00  0.1978E+02
  17.210  0.5715E+00  0.1979E+02
  17.220  0.7260E+00  0.1980E+02
  17.230  0.2227E+01  0.1982E+02
  17.240  0.1884E+01  0.1984E+02
  17.250  0.1171E+01  0.1985E+02
  17.260  0.2403E+00  0.1985E+02
  17.270  0.8454E-02  0.1985E+02
  17.280  0.4358E-04  0.1985E+02
  17.290  0.3121E-07  0.1985E+02
  17.300  0.3050E-11  0.1985E+02
  17.310  0.4748E-16  0.1985E+02
  17.320  0.7044E-12  0.1985E+02
  17.330  0.9525E-08  0.1985E+02
  17.340  0.1743E-04  0.1985E+02
  17.350  0.4317E-02  0.1985E+02
  17.360  0.1447E+00  0.1985E+02
  17.370  0.6608E+00  0.1986E+02
  17.380  0.6014E+00  0.1986E+02
  17.390  0.1230E+01  0.1988E+02
  17.400  0.9762E+00  0.1989E+02
  17.410  0.1077E+00  0.1989E+02
  17.420  0.3414E-02  0.1989E+02
  17.430  0.8768E-01  0.1989E+02
  17.440  0.5766E+00  0.1989E+02
  17.450  0.5132E+00  0.1990E+02
  17.460  0.6181E-01  0.1990E+02
  17.470  0.1008E-02  0.1990E+02
  17.480  0.2223E-05  0.1990E+02
  17.490  0.6637E-09  0.1990E+02
  17.500  0.2682E-13  0.1990E+02
  17.510  0.1467E-18  0.1990E+02
  17.520  0.1086E-24  0.1990E+02
  17.530  0.2063E-21  0.1990E+02
  17.540  0.1093E-15  0.1990E+02
  17.550  0.7837E-11  0.1990E+02
  17.560  0.7606E-07  0.1990E+02
  17.570  0.9989E-04  0.1990E+02
  17.580  0.1775E-01  0.1990E+02
  17.590  0.4272E+00  0.1990E+02
  17.600  0.1404E+01  0.1992E+02
  17.610  0.8758E+00  0.1993E+02
  17.620  0.7373E+00  0.1994E+02
  17.630  0.2590E+00  0.1994E+02
  17.640  0.1889E+00  0.1994E+02
  17.650  0.6800E+00  0.1995E+02
  17.660  0.3543E+00  0.1995E+02
  17.670  0.2499E-01  0.1995E+02
  17.680  0.2385E-03  0.1995E+02
  17.690  0.3081E-06  0.1995E+02
  17.700  0.5387E-10  0.1995E+02
  17.710  0.1275E-14  0.1995E+02
  17.720  0.4081E-20  0.1995E+02
  17.730  0.1768E-26  0.1995E+02
  17.740  0.1719E-32  0.1995E+02
  17.750  0.2179E-25  0.1995E+02
  17.760  0.3979E-19  0.1995E+02
  17.770  0.9832E-14  0.1995E+02
  17.780  0.3289E-09  0.1995E+02
  17.790  0.1488E-05  0.1995E+02
  17.800  0.9118E-03  0.1995E+02
  17.810  0.7559E-01  0.1995E+02
  17.820  0.8481E+00  0.1996E+02
  17.830  0.1288E+01  0.1997E+02
  17.840  0.2700E+00  0.1998E+02
  17.850  0.1705E+00  0.1998E+02
  17.860  0.6714E+00  0.1998E+02
  17.870  0.3739E+00  0.1999E+02
  17.880  0.2818E-01  0.1999E+02
  17.890  0.2875E-03  0.1999E+02
  17.900  0.3969E-06  0.1999E+02
  17.910  0.7414E-10  0.1999E+02
  17.920  0.1875E-14  0.1999E+02
  17.930  0.6415E-20  0.1999E+02
  17.940  0.2971E-26  0.1999E+02
  17.950  0.1862E-33  0.1999E+02
  17.960  0.1580E-41  0.1999E+02
  17.970  0.2763E-36  0.1999E+02
  17.980  0.9109E-29  0.1999E+02
  17.990  0.4065E-22  0.1999E+02
  18.000  0.2454E-16  0.1999E+02
  18.010  0.2006E-11  0.1999E+02
  18.020  0.2218E-07  0.1999E+02
  18.030  0.3320E-04  0.1999E+02
  18.040  0.6726E-02  0.1999E+02
  18.050  0.1844E+00  0.1999E+02
  18.060  0.6841E+00  0.2000E+02
  18.070  0.3435E+00  0.2000E+02
  18.080  0.2334E-01  0.2000E+02
  18.090  0.2147E-03  0.2000E+02
  18.100  0.2672E-06  0.2000E+02
  18.110  0.4500E-10  0.2000E+02
  18.120  0.1026E-14  0.2000E+02
  18.130  0.3165E-20  0.2000E+02
  18.140  0.1321E-26  0.2000E+02
  18.150  0.7467E-34  0.2000E+02
  18.160  0.5710E-42  0.2000E+02
  18.170  0.5910E-51  0.2000E+02
  18.180  0.8277E-61  0.2000E+02
  18.190  0.1569E-71  0.2000E+02
  18.200  0.5586E-83  0.2000E+02
  18.210  0.1562E-83  0.2000E+02
  18.220  0.1562E-83  0.2000E+02
  18.230  0.1562E-83  0.2000E+02
  18.240  0.1562E-83  0.2000E+02
  18.250  0.1562E-83  0.2000E+02
  18.260  0.1562E-83  0.2000E+02
  18.270  0.1562E-83  0.2000E+02
  18.280  0.1562E-83  0.2000E+02
  18.290  0.1562E-83  0.2000E+02
  18.300  0.1562E-83  0.2000E+02
  18.310  0.1562E-83  0.2000E+02
  18.320  0.1562E-83  0.2000E+02
  18.330  0.1562E-83  0.2000E+02
  18.340  0.1562E-83  0.2000E+02
  18.350  0.1562E-83  0.2000E+02
  18.360  0.1562E-83  0.2000E+02
  18.370  0.1562E-83  0.2000E+02
  18.380  0.1562E-83  0.2000E+02
  18.390  0.1562E-83  0.2000E+02
  18.400  0.1562E-83  0.2000E+02
  18.410  0.1562E-83  0.2000E+02
  18.420  0.1562E-83  0.2000E+02
  18.430  0.1562E-83  0.2000E+02
  18.440  0.1562E-83  0.2000E+02
  18.450  0.1562E-83  0.2000E+02
  18.460  0.1562E-83  0.2000E+02
  18.470  0.1562E-83  0.2000E+02
  18.480  0.1562E-83  0.2000E+02
  18.490  0.1562E-83  0.2000E+02
  18.500  0.1562E-83  0.2000E+02
  18.510  0.1562E-83  0.2000E+02
  18.520  0.1562E-83  0.2000E+02
  18.530  0.1562E-83  0.2000E+02
  18.540  0.1562E-83  0.2000E+02
  18.550  0.1562E-83  0.2000E+02
  18.560  0.1562E-83  0.2000E+02
  18.570  0.1562E-83  0.2000E+02
  18.580  0.1562E-83  0.2000E+02
  18.590  0.1562E-83  0.2000E+02
  18.600  0.1562E-83  0.2000E+02
  18.610  0.1562E-83  0.2000E+02
  18.620  0.1562E-83  0.2000E+02
  18.630  0.1562E-83  0.2000E+02
  18.640  0.1562E-83  0.2000E+02
  18.650  0.1562E-83  0.2000E+02
  18.660  0.1562E-83  0.2000E+02
  18.670  0.1562E-83  0.2000E+02
  18.680  0.1562E-83  0.2000E+02
  18.690  0.1562E-83  0.2000E+02
  18.700  0.1562E-83  0.2000E+02
  18.710  0.1562E-83  0.2000E+02
  18.720  0.1562E-83  0.2000E+02
  18.730  0.1562E-83  0.2000E+02
  18.740  0.1562E-83  0.2000E+02
  18.750  0.1562E-83  0.2000E+02
  18.760  0.1562E-83  0.2000E+02
  18.770  0.1562E-83  0.2000E+02
  18.780  0.1562E-83  0.2000E+02
  18.790  0.1562E-83  0.2000E+02
  18.800  0.1562E-83  0.2000E+02
  18.810  0.1562E-83  0.2000E+02
  18.820  0.1562E-83  0.2000E+02
  18.830  0.1562E-83  0.2000E+02
  18.840  0.1562E-83  0.2000E+02
  18.850  0.1562E-83  0.2000E+02
  18.860  0.1562E-83  0.2000E+02
  18.870  0.1562E-83  0.2000E+02
  18.880  0.1562E-83  0.2000E+02
  18.890  0.1562E-83  0.2000E+02
  18.900  0.1562E-83  0.2000E+02
  18.910  0.1562E-83  0.2000E+02
  18.920  0.1562E-83  0.2000E+02
  18.930  0.1562E-83  0.2000E+02
  18.940  0.1562E-83  0.2000E+02
  18.950  0.1562E-83  0.2000E+02
  18.960  0.1562E-83  0.2000E+02
  18.970  0.1562E-83  0.2000E+02
  18.980  0.1562E-83  0.2000E+02
  18.990  0.1562E-83  0.2000E+02
  19.000  0.1562E-83  0.2000E+02
  19.010  0.1562E-83  0.2000E+02
  19.020  0.1562E-83  0.2000E+02
  19.030  0.1562E-83  0.2000E+02
  19.040  0.1562E-83  0.2000E+02
  19.050  0.1562E-83  0.2000E+02
  19.060  0.1562E-83  0.2000E+02
  19.070  0.1562E-83  0.2000E+02
  19.080  0.1562E-83  0.2000E+02
  19.090  0.1562E-83  0.2000E+02
  19.100  0.1562E-83  0.2000E+02
  19.110  0.1562E-83  0.2000E+02
  19.120  0.1562E-83  0.2000E+02
  19.130  0.1562E-83  0.2000E+02
  19.140  0.1562E-83  0.2000E+02
  19.150  0.1562E-83  0.2000E+02
  19.160  0.1562E-83  0.2000E+02
  19.170  0.1562E-83  0.2000E+02
  19.180  0.1562E-83  0.2000E+02
  19.190  0.1562E-83  0.2000E+02
  19.200  0.1562E-83  0.2000E+02
  19.210  0.1562E-83  0.2000E+02
  19.220  0.1562E-83  0.2000E+02
  19.230  0.1562E-83  0.2000E+02
  19.240  0.1562E-83  0.2000E+02
  19.250  0.1562E-83  0.2000E+02
  19.260  0.1562E-83  0.2000E+02
  19.270  0.1562E-83  0.2000E+02
  19.280  0.1562E-83  0.2000E+02
  19.290  0.1562E-83  0.2000E+02
  19.300  0.1562E-83  0.2000E+02
  19.310  0.1562E-83  0.2000E+02
  19.320  0.1562E-83  0.2000E+02
  19.330  0.1562E-83  0.2000E+02
  19.340  0.1562E-83  0.2000E+02
  19.350  0.1562E-83  0.2000E+02
  19.360  0.1562E-83  0.2000E+02
  19.370  0.1562E-83  0.2000E+02
  19.380  0.1562E-83  0.2000E+02
  19.390  0.1562E-83  0.2000E+02
  19.400  0.1562E-83  0.2000E+02
  19.410  0.1562E-83  0.2000E+02
  19.420  0.1562E-83  0.2000E+02
  19.430  0.1562E-83  0.2000E+02
  19.440  0.1562E-83  0.2000E+02
  19.450  0.1562E-83  0.2000E+02
  19.460  0.1562E-83  0.2000E+02
  19.470  0.1562E-83  0.2000E+02
  19.480  0.1562E-83  0.2000E+02
  19.490  0.1562E-83  0.2000E+02
  19.500  0.1562E-83  0.2000E+02
  19.510  0.1562E-83  0.2000E+02
  19.520  0.1562E-83  0.2000E+02
  19.530  0.1562E-83  0.2000E+02
  19.540  0.1562E-83  0.2000E+02
  19.550  0.1562E-83  0.2000E+02
  19.560  0.1562E-83  0.2000E+02
  19.570  0.1562E-83  0.2000E+02
  19.580  0.1562E-83  0.2000E+02
  19.590  0.1562E-83  0.2000E+02
  19.600  0.1562E-83  0.2000E+02
  19.610  0.1562E-83  0.2000E+02
  19.620  0.1562E-83  0.2000E+02
  19.630  0.1562E-83  0.2000E+02
  19.640  0.1562E-83  0.2000E+02
  19.650  0.1562E-83  0.2000E+02
  19.660  0.1562E-83  0.2000E+02
  19.670  0.1562E-83  0.2000E+02
  19.680  0.1562E-83  0.2000E+02
  19.690  0.1562E-83  0.2000E+02
  19.700  0.1562E-83  0.2000E+02
  19.710  0.1562E-83  0.2000E+02
  19.720  0.1562E-83  0.2000E+02
  19.730  0.1562E-83  0.2000E+02
  19.740  0.1562E-83  0.2000E+02
  19.750  0.1562E-83  0.2000E+02
  19.760  0.1562E-83  0.2000E+02
  19.770  0.1562E-83  0.2000E+02
  19.780  0.1562E-83  0.2000E+02
  19.790  0.1562E-83  0.2000E+02
  19.800  0.1562E-83  0.2000E+02
  19.810  0.1562E-83  0.2000E+02
  19.820  0.1562E-83  0.2000E+02
  19.830  0.1562E-83  0.2000E+02
  19.840  0.1562E-83  0.2000E+02
  19.850  0.1562E-83  0.2000E+02
  19.860  0.1562E-83  0.2000E+02
  19.870  0.1562E-83  0.2000E+02
  19.880  0.1562E-83  0.2000E+02
  19.890  0.1562E-83  0.2000E+02
  19.900  0.1562E-83  0.2000E+02
  19.910  0.1562E-83  0.2000E+02
  19.920  0.1562E-83  0.2000E+02
  19.930  0.1562E-83  0.2000E+02
  19.940  0.1562E-83  0.2000E+02
  19.950  0.1562E-83  0.2000E+02
  19.960  0.1562E-83  0.2000E+02
  19.970  0.1562E-83  0.2000E+02
  19.980  0.1562E-83  0.2000E+02
  19.990  0.1562E-83  0.2000E+02
  20.000  0.1562E-83  0.2000E+02
